      20    2420    0     datakind beginning-row linenumbers
MSCD Version 1.00 Yufeng Chen and Michel A Van Hove
Lawrence Berkeley National Laboratory (LBNL), Berkeley, CA 94720
Copyright (c) Van Hove Group 1997. All rights reserved
--------------------------------------------------------------
angle-resolved photoemission extended fine structure (ARPEFS)
experimental data for Fe 2p3/2 from Fe on STO(100)  excited with hv=1810eV

provided by Pancotti et al. (LNLS in 9, June 2010)
   initial angular momentum (l) = 1
   photon polarization angle (polar, azimuth) = (  30.0,   0.0 ) (deg)
   sample temperature = 300 K

   photoemission angular scan curves
     (curve point theta phi weightc weighte//k intensity chiexp)
      20     2420       1       20     121     2420
       1     121       19.5900     12.0000      1.00000      0.00000
      0.0000      325586.40      319062.50      -0.0514754
      3.0000      339399.90      319062.50      -0.0341525
      6.0000      344807.20      319062.50      -0.0156754
      9.0000      357484.00      319062.50      -0.0055337
      12.0000      362181.00      319062.50      0.0188725
      15.0000      366548.80      319062.50      0.0200106
      18.0000      377451.80      319062.50      0.0286845
      21.0000      388698.70      319062.50      0.0495041
      24.0000      389505.30      319062.50      0.0678032
      27.0000      379805.60      319062.50      0.0269503
      30.0000      379882.40      319062.50      0.0262681
      33.0000      382814.60      319062.50      0.0272908
      36.0000      370866.00      319062.50      0.0135280
      39.0000      370505.80      319062.50      -0.0092050
      42.0000      369677.70      319062.50      0.0059653
      45.0000      364104.80      319062.50      -0.0105763
      48.0000      372650.80      319062.50      -0.0054797
      51.0000      367848.80      319062.50      -0.0168243
      54.0000      375645.00      319062.50      -0.0054623
      57.0000      381548.70      319062.50      -0.0002603
      60.0000      393458.40      319062.50      0.0052777
      63.0000      400969.00      319062.50      0.0078388
      66.0000      406443.70      319062.50      0.2001880
      69.0000      408786.50      319062.50      0.0468255
      72.0000      415233.70      319062.50      0.0654959
      75.0000      406810.00      319062.50      0.0502572
      78.0000      403445.00      319062.50      0.0645329
      81.0000      394212.50      319062.50      0.0488766
      84.0000      392677.00      319062.50      0.0594443
      87.0000      377262.10      319062.50      0.0382841
      90.0000      377843.20      319062.50      0.0469004
      93.0000      374569.70      319062.50      0.0208930
      96.0000      361968.10      319062.50      0.0106714
      99.0000      350461.50      319062.50      -0.0141605
      102.0000      344708.40      319062.50      -0.0224431
      105.0000      335540.10      319062.50      -0.0388157
      108.0000      332627.60      319062.50      -0.0550325
      111.0000      336316.20      319062.50      -0.0451912
      114.0000      327392.20      319062.50      -0.0530593
      117.0000      334422.70      319062.50      -0.0433703
      120.0000      337457.70      319062.50      -0.0386997
      123.0000      334158.80      319062.50      -0.0536608
      126.0000      330121.80      319062.50      -0.0401209
      129.0000      327555.20      319062.50      -0.0359434
      132.0000      328253.60      319062.50      -0.0325183
      135.0000      330384.60      319062.50      -0.0376470
      138.0000      327751.00      319062.50      -0.0230184
      141.0000      326882.90      319062.50      -0.0219751
      144.0000      315540.80      319062.50      -0.0395364
      147.0000      315540.80      319062.50      -0.0337753
      150.0000      314262.30      319062.50      -0.0259761
      153.0000      315661.00      319062.50      -0.0187035
      156.0000      314533.70      319062.50      -0.0260700
      159.0000      305660.40      319062.50      -0.0341533
      162.0000      298904.30      319062.50      -0.0360873
      165.0000      304047.20      319062.50      -0.0141625
      168.0000      299486.00      319062.50      -0.0076406
      171.0000      299213.10      319062.50      -0.0044918
      174.0000      295417.70      319062.50      -0.0042082
      177.0000      300367.30      319062.50      0.0161016
      180.0000      299866.00      319062.50      -0.0514754
      183.0000      298436.10      319062.50      -0.0341524
      186.0000      304655.50      319062.50      -0.0156753
      189.0000      299780.60      319062.50      -0.0055337
      192.0000      309798.90      319062.50      0.0188725
      195.0000      306184.80      319062.50      0.0200106
      198.0000      301762.50      319062.50      0.0286845
      201.0000      304104.60      319062.50      0.0495041
      204.0000      312966.20      319062.50      0.0678032
      207.0000      295882.20      319062.50      0.0269503
      210.0000      294261.80      319062.50      0.0262681
      213.0000      291399.30      319062.50      0.0272908
      216.0000      291308.40      319062.50      0.0135280
      219.0000      277578.40      319062.50      -0.0092050
      222.0000      285269.10      319062.50      0.0059653
      225.0000      278844.50      319062.50      -0.0105763
      228.0000      274057.10      319062.50      -0.0054797
      231.0000      269972.30      319062.50      -0.0168243
      234.0000      269166.70      319062.50      -0.0054623
      237.0000      266381.50      319062.50      -0.0002603
      240.0000      259502.20      319062.50      0.0052776
      243.0000      254191.30      319062.50      0.0078388
      246.0000      351611.20      319062.50      0.2001880
      249.0000      266760.60      319062.50      0.0468255
      252.0000      270758.60      319062.50      0.0654959
      255.0000      267341.10      319062.50      0.0502572
      258.0000      276002.80      319062.50      0.0645329
      261.0000      273072.00      319062.50      0.0488766
      264.0000      278574.90      319062.50      0.0594443
      267.0000      277340.70      319062.50      0.0382841
      270.0000      280460.80      319062.50      0.0469004
      273.0000      268175.20      319062.50      0.0208930
      276.0000      271051.20      319062.50      0.0106714
      279.0000      265569.90      319062.50      -0.0141605
      282.0000      264767.30      319062.50      -0.0224431
      285.0000      262313.80      319062.50      -0.0388157
      288.0000      255418.30      319062.50      -0.0550325
      291.0000      257550.40      319062.50      -0.0451912
      294.0000      259827.20      319062.50      -0.0530593
      297.0000      259518.60      319062.50      -0.0433703
      300.0000      259613.80      319062.50      -0.0386997
      303.0000      254032.30      319062.50      -0.0536608
      306.0000      264744.30      319062.50      -0.0401209
      309.0000      269370.70      319062.50      -0.0359434
      312.0000      271097.40      319062.50      -0.0325183
      315.0000      266938.90      319062.50      -0.0376470
      318.0000      277998.50      319062.50      -0.0230184
      321.0000      280091.60      319062.50      -0.0219751
      324.0000      280689.60      319062.50      -0.0395365
      327.0000      285104.40      319062.50      -0.0337753
      330.0000      292062.00      319062.50      -0.0259762
      333.0000      296503.50      319062.50      -0.0187035
      336.0000      294621.60      319062.50      -0.0260700
      339.0000      299760.30      319062.50      -0.0341533
      342.0000      306987.70      319062.50      -0.0360873
      345.0000      317741.50      319062.50      -0.0141626
      348.0000      328847.10      319062.50      -0.0076406
      351.0000      333756.00      319062.50      -0.0044918
      354.0000      340751.80      319062.50      -0.0042082
      357.0000      351937.70      319062.50      0.0161016

       2     121       19.5900     15.0000      1.00000      0.00000
      0.0000      328711.70      296703.40      -0.1187176
      3.0000      336508.00      296703.40      -0.1010930
      6.0000      348417.20      296703.40      -0.0846855
      9.0000      359681.90      296703.40      -0.0670536
      12.0000      370336.20      296703.40      -0.0456623
      15.0000      385984.70      296703.40      -0.0267915
      18.0000      404567.20      296703.40      0.0220370
      21.0000      408552.30      296703.40      0.0454209
      24.0000      419810.50      296703.40      0.0552342
      27.0000      423371.80      296703.40      0.0695251
      30.0000      425376.30      296703.40      0.0782649
      33.0000      419412.60      296703.40      0.0764600
      36.0000      415888.90      296703.40      0.0741421
      39.0000      403498.70      296703.40      0.0551241
      42.0000      391509.80      296703.40      0.0172084
      45.0000      384758.60      296703.40      0.0300652
      48.0000      386819.00      296703.40      0.0204488
      51.0000      383826.00      296703.40      0.0158883
      54.0000      385277.10      296703.40      0.0184566
      57.0000      399777.90      296703.40      0.0273010
      60.0000      406912.60      296703.40      0.0270486
      63.0000      410396.40      296703.40      0.0647767
      66.0000      425718.80      296703.40      0.0879858
      69.0000      416182.00      296703.40      0.0768201
      72.0000      424995.80      296703.40      0.0994877
      75.0000      411507.10      296703.40      0.0698865
      78.0000      398058.50      296703.40      0.0634858
      81.0000      382100.70      296703.40      0.0372216
      84.0000      371542.50      296703.40      0.0211259
      87.0000      345034.30      296703.40      -0.0360108
      90.0000      327557.30      296703.40      -0.0473012
      93.0000      323791.50      296703.40      -0.0494652
      96.0000      313738.80      296703.40      -0.0671516
      99.0000      308790.50      296703.40      -0.0997067
      102.0000      313348.30      296703.40      -0.0786581
      105.0000      315139.70      296703.40      -0.0648342
      108.0000      324626.90      296703.40      -0.0770408
      111.0000      328414.50      296703.40      -0.0501253
      114.0000      334474.40      296703.40      -0.0319723
      117.0000      333968.70      296703.40      -0.0447392
      120.0000      336178.10      296703.40      -0.0155681
      123.0000      337816.60      296703.40      -0.0163815
      126.0000      327579.40      296703.40      -0.0041116
      129.0000      328129.00      296703.40      0.0063737
      132.0000      328678.50      296703.40      0.0132961
      135.0000      324716.40      296703.40      0.0215956
      138.0000      317000.60      296703.40      0.0178963
      141.0000      317089.30      296703.40      0.0202913
      144.0000      318093.40      296703.40      0.0287394
      147.0000      310928.80      296703.40      0.0189435
      150.0000      306109.60      296703.40      0.0285503
      153.0000      301854.90      296703.40      0.0205726
      156.0000      296565.00      296703.40      0.0227697
      159.0000      286015.90      296703.40      -0.0123248
      162.0000      291471.80      296703.40      -0.0005172
      165.0000      284770.70      296703.40      -0.0153402
      168.0000      281050.60      296703.40      -0.0158329
      171.0000      265512.90      296703.40      -0.0427606
      174.0000      262761.70      296703.40      -0.0465373
      177.0000      248125.70      296703.40      -0.0654109
      180.0000      244471.70      296703.40      -0.1187175
      183.0000      246818.80      296703.40      -0.1010930
      186.0000      245520.40      296703.40      -0.0846855
      189.0000      245249.80      296703.40      -0.0670536
      192.0000      247260.10      296703.40      -0.0456623
      195.0000      244536.60      296703.40      -0.0267915
      198.0000      255103.80      296703.40      0.0220370
      201.0000      261997.70      296703.40      0.0454209
      204.0000      257259.00      296703.40      0.0552342
      207.0000      259590.70      296703.40      0.0695251
      210.0000      260055.80      296703.40      0.0782649
      213.0000      260270.10      296703.40      0.0764600
      216.0000      258680.50      296703.40      0.0741422
      219.0000      254549.00      296703.40      0.0551241
      222.0000      241365.90      296703.40      0.0172084
      225.0000      248886.10      296703.40      0.0300652
      228.0000      240681.80      296703.40      0.0204489
      231.0000      237898.40      296703.40      0.0158883
      234.0000      235794.00      296703.40      0.0184567
      237.0000      228912.00      296703.40      0.0273010
      240.0000      222312.30      296703.40      0.0270486
      243.0000      234821.60      296703.40      0.0647768
      246.0000      233889.40      296703.40      0.0879858
      249.0000      232250.20      296703.40      0.0768201
      252.0000      234888.70      296703.40      0.0994877
      255.0000      227673.20      296703.40      0.0698865
      258.0000      230738.00      296703.40      0.0634858
      261.0000      226789.80      296703.40      0.0372215
      264.0000      224285.20      296703.40      0.0211259
      267.0000      213606.60      296703.40      -0.0360108
      270.0000      217722.90      296703.40      -0.0473012
      273.0000      217815.30      296703.40      -0.0494651
      276.0000      215114.10      296703.40      -0.0671516
      279.0000      203018.30      296703.40      -0.0997067
      282.0000      208530.10      296703.40      -0.0786581
      285.0000      212709.00      296703.40      -0.0648342
      288.0000      200699.70      296703.40      -0.0770408
      291.0000      209531.40      296703.40      -0.0501252
      294.0000      213153.60      296703.40      -0.0319723
      297.0000      207344.40      296703.40      -0.0447392
      300.0000      218676.40      296703.40      -0.0155681
      303.0000      216999.80      296703.40      -0.0163815
      306.0000      229682.60      296703.40      -0.0041116
      309.0000      234351.80      296703.40      0.0063737
      312.0000      237541.70      296703.40      0.0132961
      315.0000      244907.30      296703.40      0.0215956
      318.0000      249683.50      296703.40      0.0178963
      321.0000      251694.70      296703.40      0.0202913
      324.0000      256114.20      296703.40      0.0287393
      327.0000      258233.20      296703.40      0.0189435
      330.0000      268566.80      296703.40      0.0285503
      333.0000      269749.60      296703.40      0.0205725
      336.0000      277414.00      296703.40      0.0227697
      339.0000      270215.70      296703.40      -0.0123248
      342.0000      273636.30      296703.40      -0.0005172
      345.0000      274015.80      296703.40      -0.0153402
      348.0000      279754.70      296703.40      -0.0158330
      351.0000      282656.10      296703.40      -0.0427606
      354.0000      286122.60      296703.40      -0.0465373
      357.0000      293756.00      296703.40      -0.0654109

       3     121       19.5900     18.0000      1.00000      0.00000
      0.0000      313086.00      311023.60      -0.0733003
      3.0000      312025.70      311023.60      -0.0694069
      6.0000      305322.50      311023.60      -0.0944631
      9.0000      346217.70      311023.60      -0.0340190
      12.0000      359007.50      311023.60      -0.0152681
      15.0000      359523.60      311023.60      -0.0076344
      18.0000      413043.20      311023.60      0.0765416
      21.0000      425746.00      311023.60      0.0890959
      24.0000      402044.40      311023.60      0.0579961
      27.0000      402563.70      311023.60      0.0741848
      30.0000      402892.70      311023.60      0.0756510
      33.0000      427071.60      311023.60      0.1003427
      36.0000      384834.90      311023.60      0.0636423
      39.0000      397457.50      311023.60      0.0626168
      42.0000      405080.40      311023.60      0.0675986
      45.0000      381978.70      311023.60      0.0398364
      48.0000      352964.60      311023.60      -0.0262350
      51.0000      378514.80      311023.60      -0.0039919
      54.0000      375527.30      311023.60      -0.0059532
      57.0000      385429.00      311023.60      -0.0003162
      60.0000      381658.80      311023.60      0.0052482
      63.0000      396299.50      311023.60      0.0031316
      66.0000      424113.50      311023.60      0.0465810
      69.0000      422934.60      311023.60      0.0532157
      72.0000      407399.40      311023.60      0.0247543
      75.0000      377216.80      311023.60      -0.0161592
      78.0000      358357.00      311023.60      -0.0442519
      81.0000      357652.00      311023.60      -0.0675302
      84.0000      344996.50      311023.60      -0.0823658
      87.0000      323960.00      311023.60      -0.1211064
      90.0000      314417.00      311023.60      -0.1385609
      93.0000      326368.60      311023.60      -0.1335274
      96.0000      337152.50      311023.60      -0.1223155
      99.0000      309876.40      311023.60      -0.1456212
      102.0000      314863.40      311023.60      -0.1586510
      105.0000      343033.40      311023.60      -0.1067992
      108.0000      349657.60      311023.60      -0.0901493
      111.0000      374792.40      311023.60      -0.0447554
      114.0000      383026.50      311023.60      -0.0184842
      117.0000      383466.80      311023.60      0.0108594
      120.0000      361447.60      311023.60      -0.0164405
      123.0000      368989.50      311023.60      0.0313622
      126.0000      339830.70      311023.60      0.0094557
      129.0000      370373.60      311023.60      0.0655193
      132.0000      359190.50      311023.60      0.0671287
      135.0000      334702.00      311023.60      0.0334855
      138.0000      357780.00      311023.60      0.0805645
      141.0000      353526.70      311023.60      0.0732833
      144.0000      362246.50      311023.60      0.0977525
      147.0000      344659.40      311023.60      0.0688829
      150.0000      341798.20      311023.60      0.0752174
      153.0000      338470.80      311023.60      0.0781146
      156.0000      348917.80      311023.60      0.0989120
      159.0000      313102.60      311023.60      0.0150905
      162.0000      323883.00      311023.60      0.0437197
      165.0000      315502.80      311023.60      0.0254266
      168.0000      322588.60      311023.60      0.0305082
      171.0000      301611.60      311023.60      -0.0148006
      174.0000      284750.10      311023.60      -0.0591084
      177.0000      280476.50      311023.60      -0.0704974
      180.0000      269522.90      311023.60      -0.0733003
      183.0000      273333.60      311023.60      -0.0694070
      186.0000      264888.40      311023.60      -0.0944631
      189.0000      266438.80      311023.60      -0.0340190
      192.0000      266997.90      311023.60      -0.0152681
      195.0000      270622.50      311023.60      -0.0076344
      198.0000      276141.90      311023.60      0.0765416
      201.0000      273257.90      311023.60      0.0890959
      204.0000      273097.70      311023.60      0.0579961
      207.0000      280295.60      311023.60      0.0741848
      210.0000      279691.10      311023.60      0.0756510
      213.0000      274746.20      311023.60      0.1003427
      216.0000      282925.90      311023.60      0.0636423
      219.0000      272559.30      311023.60      0.0626168
      222.0000      268570.30      311023.60      0.0675986
      225.0000      268108.70      311023.60      0.0398365
      228.0000      252550.80      311023.60      -0.0262350
      231.0000      245779.50      311023.60      -0.0039919
      234.0000      245206.50      311023.60      -0.0059531
      237.0000      240321.20      311023.60      -0.0003162
      240.0000      243848.50      311023.60      0.0052482
      243.0000      232509.00      311023.60      0.0031316
      246.0000      234732.40      311023.60      0.0465810
      249.0000      237241.40      311023.60      0.0532157
      252.0000      232077.80      311023.60      0.0247543
      255.0000      230099.50      311023.60      -0.0161592
      258.0000      227409.50      311023.60      -0.0442519
      261.0000      216112.90      311023.60      -0.0675302
      264.0000      216112.90      311023.60      -0.0823658
      267.0000      210289.60      311023.60      -0.1211064
      270.0000      207504.30      311023.60      -0.1385609
      273.0000      202043.20      311023.60      -0.1335274
      276.0000      200203.20      311023.60      -0.1223155
      279.0000      206184.00      311023.60      -0.1456212
      282.0000      196787.70      311023.60      -0.1586510
      285.0000      203231.80      311023.60      -0.1067992
      288.0000      206891.50      311023.60      -0.0901493
      291.0000      212217.50      311023.60      -0.0447554
      294.0000      219617.00      311023.60      -0.0184842
      297.0000      234076.70      311023.60      0.0108593
      300.0000      236493.20      311023.60      -0.0164405
      303.0000      256037.10      311023.60      0.0313623
      306.0000      267364.20      311023.60      0.0094557
      309.0000      275124.50      311023.60      0.0655193
      312.0000      286213.50      311023.60      0.0671287
      315.0000      289526.50      311023.60      0.0334854
      318.0000      298825.50      311023.60      0.0805645
      321.0000      300780.00      311023.60      0.0732833
      324.0000      309748.40      311023.60      0.0977524
      327.0000      311457.00      311023.60      0.0688829
      330.0000      320868.30      311023.60      0.0752174
      333.0000      329110.50      311023.60      0.0781146
      336.0000      335367.80      311023.60      0.0989120
      339.0000      322469.80      311023.60      0.0150905
      342.0000      333515.80      311023.60      0.0437197
      345.0000      334538.10      311023.60      0.0254266
      348.0000      334234.20      311023.60      0.0305082
      351.0000      331284.30      311023.60      -0.0148006
      354.0000      324415.90      311023.60      -0.0591084
      357.0000      325781.60      311023.60      -0.0704974

       4     121       19.5900     21.0000      1.00000      0.00000
      0.0000      303299.30      314154.80      -0.0469259
      3.0000      324486.20      314154.80      -0.0057352
      6.0000      321921.20      314154.80      -0.0725593
      9.0000      310252.80      314154.80      -0.0919966
      12.0000      316629.10      314154.80      -0.0772492
      15.0000      343487.80      314154.80      -0.0319561
      18.0000      362227.10      314154.80      -0.0005896
      21.0000      360554.00      314154.80      0.0017773
      24.0000      385522.00      314154.80      0.0470299
      27.0000      395635.90      314154.80      0.0490574
      30.0000      371847.20      314154.80      0.0064078
      33.0000      387091.00      314154.80      0.0601548
      36.0000      389790.10      314154.80      0.0334048
      39.0000      352635.10      314154.80      -0.0734043
      42.0000      341169.30      314154.80      -0.0518054
      45.0000      373367.80      314154.80      -0.0376320
      48.0000      358061.70      314154.80      -0.0038700
      51.0000      379838.00      314154.80      -0.0311870
      54.0000      379838.00      314154.80      0.0105193
      57.0000      346077.50      314154.80      -0.0599711
      60.0000      396001.70      314154.80      0.0153883
      63.0000      386783.80      314154.80      0.0187435
      66.0000      406006.90      314154.80      0.0202603
      69.0000      406006.90      314154.80      0.0421139
      72.0000      391187.60      314154.80      0.0490555
      75.0000      367303.50      314154.80      0.0161999
      78.0000      351791.50      314154.80      -0.0232069
      81.0000      333035.50      314154.80      -0.0443570
      84.0000      351934.50      314154.80      -0.0787066
      87.0000      320083.70      314154.80      -0.0649482
      90.0000      337409.60      314154.80      -0.0802805
      93.0000      338244.70      314154.80      -0.0855108
      96.0000      326969.20      314154.80      -0.0909337
      99.0000      345352.10      314154.80      -0.0720602
      102.0000      349456.90      314154.80      -0.0608312
      105.0000      308922.00      314154.80      -0.1343900
      108.0000      355343.90      314154.80      -0.0306964
      111.0000      380007.70      314154.80      0.0369141
      114.0000      354396.50      314154.80      -0.0247831
      117.0000      319858.10      314154.80      -0.0117927
      120.0000      357155.60      314154.80      0.0421291
      123.0000      370761.40      314154.80      0.0921040
      126.0000      367014.50      314154.80      0.0380992
      129.0000      344806.40      314154.80      0.0199722
      132.0000      349777.30      314154.80      0.0265850
      135.0000      345476.40      314154.80      -0.0080493
      138.0000      334174.60      314154.80      0.0065294
      141.0000      352510.70      314154.80      0.0403749
      144.0000      376955.80      314154.80      0.0646517
      147.0000      352933.70      314154.80      0.0703848
      150.0000      373506.10      314154.80      0.0995467
      153.0000      373506.10      314154.80      0.1033349
      156.0000      373506.10      314154.80      0.0789877
      159.0000      359223.00      314154.80      0.0946679
      162.0000      326324.90      314154.80      0.0662011
      165.0000      345046.40      314154.80      0.0793375
      168.0000      338703.30      314154.80      0.0290943
      171.0000      320793.60      314154.80      0.0105424
      174.0000      320793.60      314154.80      -0.0011080
      177.0000      320793.60      314154.80      0.0014420
      180.0000      278475.70      314154.80      -0.0469259
      183.0000      285495.50      314154.80      -0.0057352
      186.0000      251152.90      314154.80      -0.0725593
      189.0000      251925.80      314154.80      -0.0919965
      192.0000      256193.90      314154.80      -0.0772492
      195.0000      260483.40      314154.80      -0.0319562
      198.0000      263712.70      314154.80      -0.0005896
      201.0000      267040.60      314154.80      0.0017773
      204.0000      272807.90      314154.80      0.0470299
      207.0000      266509.50      314154.80      0.0490574
      210.0000      261557.20      314154.80      0.0064078
      213.0000      278751.10      314154.80      0.0601548
      216.0000      262365.20      314154.80      0.0334048
      219.0000      232685.10      314154.80      -0.0734043
      222.0000      251486.00      314154.80      -0.0518054
      225.0000      235773.10      314154.80      -0.0376320
      228.0000      262940.10      314154.80      -0.0038700
      231.0000      233490.90      314154.80      -0.0311870
      234.0000      253877.60      314154.80      0.0105193
      237.0000      240292.60      314154.80      -0.0599711
      240.0000      244028.70      314154.80      0.0153883
      243.0000      251052.80      314154.80      0.0187436
      246.0000      238436.30      314154.80      0.0202603
      249.0000      248553.60      314154.80      0.0421139
      252.0000      260996.90      314154.80      0.0490555
      255.0000      259817.50      314154.80      0.0161999
      258.0000      250063.00      314154.80      -0.0232069
      261.0000      251532.60      314154.80      -0.0443570
      264.0000      221922.70      314154.80      -0.0787065
      267.0000      249451.20      314154.80      -0.0649482
      270.0000      230329.50      314154.80      -0.0802805
      273.0000      227147.20      314154.80      -0.0855108
      276.0000      232103.80      314154.80      -0.0909337
      279.0000      229262.10      314154.80      -0.0720602
      282.0000      232351.20      314154.80      -0.0608312
      285.0000      223660.90      314154.80      -0.1343900
      288.0000      244455.90      314154.80      -0.0306964
      291.0000      262319.50      314154.80      0.0369142
      294.0000      249700.00      314154.80      -0.0247831
      297.0000      283039.60      314154.80      -0.0117927
      300.0000      285272.30      314154.80      0.0421291
      303.0000      303355.70      314154.80      0.0921040
      306.0000      278744.40      314154.80      0.0380992
      309.0000      288234.60      314154.80      0.0199722
      312.0000      290001.90      314154.80      0.0265850
      315.0000      276084.90      314154.80      -0.0080493
      318.0000      296414.80      314154.80      0.0065294
      321.0000      302872.40      314154.80      0.0403749
      324.0000      298024.60      314154.80      0.0646517
      327.0000      326480.10      314154.80      0.0703848
      330.0000      328297.80      314154.80      0.0995467
      333.0000      333989.10      314154.80      0.1033349
      336.0000      321584.30      314154.80      0.0789877
      339.0000      350265.40      314154.80      0.0946679
      342.0000      370676.70      314154.80      0.0662011
      345.0000      363699.30      314154.80      0.0793375
      348.0000      339839.90      314154.80      0.0290943
      351.0000      351887.40      314154.80      0.0105425
      354.0000      347782.00      314154.80      -0.0011080
      357.0000      354231.20      314154.80      0.0014420

       5     121       19.5900     24.0000      1.00000      0.00000
      0.0000      284781.60      278157.60      -0.0129936
      3.0000      317024.40      278157.60      0.0349565
      6.0000      302148.40      278157.60      -0.0729929
      9.0000      322913.60      278157.60      0.0337474
      12.0000      338947.80      278157.60      0.0446821
      15.0000      312730.70      278157.60      -0.0128024
      18.0000      310464.80      278157.60      0.0018441
      21.0000      311666.50      278157.60      -0.0678558
      24.0000      314611.60      278157.60      -0.0136624
      27.0000      314611.60      278157.60      -0.0239625
      30.0000      359778.60      278157.60      0.0400339
      33.0000      362893.80      278157.60      0.0230307
      36.0000      346178.30      278157.60      -0.0019306
      39.0000      355521.20      278157.60      0.0202091
      42.0000      339385.10      278157.60      -0.0259958
      45.0000      341850.40      278157.60      -0.0107709
      48.0000      332233.90      278157.60      -0.0228108
      51.0000      337510.30      278157.60      -0.0480284
      54.0000      340399.70      278157.60      -0.0572038
      57.0000      341916.10      278157.60      -0.0915491
      60.0000      350820.20      278157.60      -0.0150213
      63.0000      331291.00      278157.60      -0.0763189
      66.0000      322730.70      278157.60      -0.0854921
      69.0000      341969.20      278157.60      0.0061630
      72.0000      333467.20      278157.60      -0.0270350
      75.0000      312378.70      278157.60      -0.0298215
      78.0000      308121.70      278157.60      -0.0250898
      81.0000      314609.00      278157.60      -0.0143745
      84.0000      307543.80      278157.60      -0.0408165
      87.0000      292874.40      278157.60      -0.1136928
      90.0000      319447.10      278157.60      -0.0184455
      93.0000      322028.40      278157.60      -0.0716181
      96.0000      302509.20      278157.60      -0.0508126
      99.0000      296089.60      278157.60      -0.1028198
      102.0000      278265.80      278157.60      -0.2751679
      105.0000      301323.90      278157.60      -0.0672445
      108.0000      274784.40      278157.60      -0.0624550
      111.0000      317347.50      278157.60      0.0029511
      114.0000      309550.20      278157.60      -0.0047135
      117.0000      326909.90      278157.60      0.0551571
      120.0000      320448.70      278157.60      0.0962711
      123.0000      326254.30      278157.60      0.1199596
      126.0000      316302.40      278157.60      0.0497140
      129.0000      312555.90      278157.60      0.1119949
      132.0000      318129.00      278157.60      0.1138895
      135.0000      296293.70      278157.60      0.0654243
      138.0000      302986.90      278157.60      0.0298691
      141.0000      306878.90      278157.60      0.0778594
      144.0000      311152.70      278157.60      0.0804491
      147.0000      312396.20      278157.60      0.0657873
      150.0000      304371.60      278157.60      0.0620668
      153.0000      321210.80      278157.60      0.1086943
      156.0000      301938.50      278157.60      0.0812859
      159.0000      309177.60      278157.60      0.0504748
      162.0000      312907.10      278157.60      0.0750491
      165.0000      304528.70      278157.60      0.0835581
      168.0000      293195.80      278157.60      0.0487996
      171.0000      265399.30      278157.60      -0.0420199
      174.0000      278565.10      278157.60      0.0100878
      177.0000      270419.40      278157.60      -0.0601649
      180.0000      260167.00      278157.60      -0.0129936
      183.0000      258158.00      278157.60      0.0349565
      186.0000      217070.70      278157.60      -0.0729929
      189.0000      253803.00      278157.60      0.0337474
      192.0000      246848.00      278157.60      0.0446821
      195.0000      239072.20      278157.60      -0.0128024
      198.0000      247499.50      278157.60      0.0018441
      201.0000      213120.20      278157.60      -0.0678558
      204.0000      236042.60      278157.60      -0.0136624
      207.0000      230571.20      278157.60      -0.0239625
      210.0000      227785.60      278157.60      0.0400338
      213.0000      217224.50      278157.60      0.0230307
      216.0000      216603.90      278157.60      -0.0019306
      219.0000      219478.60      278157.60      0.0202091
      222.0000      208739.30      278157.60      -0.0259957
      225.0000      212990.00      278157.60      -0.0107709
      228.0000      213041.00      278157.60      -0.0228108
      231.0000      197666.10      278157.60      -0.0480284
      234.0000      190961.30      278157.60      -0.0572037
      237.0000      174314.30      278157.60      -0.0915491
      240.0000      200845.60      278157.60      -0.0150213
      243.0000      186095.00      278157.60      -0.0763189
      246.0000      186835.50      278157.60      -0.0854921
      249.0000      213070.70      278157.60      0.0061630
      252.0000      203574.60      278157.60      -0.0270350
      255.0000      215127.50      278157.60      -0.0298215
      258.0000      219324.00      278157.60      -0.0250899
      261.0000      219324.00      278157.60      -0.0143745
      264.0000      212228.40      278157.60      -0.0408165
      267.0000      190259.90      278157.60      -0.1136928
      270.0000      213722.80      278157.60      -0.0184456
      273.0000      188996.50      278157.60      -0.0716181
      276.0000      210946.10      278157.60      -0.0508127
      279.0000      192745.20      278157.60      -0.1028198
      282.0000      129221.90      278157.60      -0.2751679
      285.0000      205447.20      278157.60      -0.0672445
      288.0000      226775.20      278157.60      -0.0624550
      291.0000      226858.70      278157.60      0.0029511
      294.0000      229888.00      278157.60      -0.0047135
      297.0000      245757.30      278157.60      0.0551571
      300.0000      271208.80      278157.60      0.0962711
      303.0000      279730.30      278157.60      0.1199596
      306.0000      255686.70      278157.60      0.0497140
      309.0000      291061.60      278157.60      0.1119949
      312.0000      289854.60      278157.60      0.1138895
      315.0000      286527.10      278157.60      0.0654243
      318.0000      265060.10      278157.60      0.0298691
      321.0000      289188.20      278157.60      0.0778594
      324.0000      289514.00      278157.60      0.0804491
      327.0000      283256.70      278157.60      0.0657873
      330.0000      291993.00      278157.60      0.0620668
      333.0000      304586.60      278157.60      0.1086943
      336.0000      312251.00      278157.60      0.0812859
      339.0000      289714.10      278157.60      0.0504748
      342.0000      303668.70      278157.60      0.0750491
      345.0000      322204.60      278157.60      0.0835581
      348.0000      317623.00      278157.60      0.0487997
      351.0000      296806.60      278157.60      -0.0420198
      354.0000      318675.60      278157.60      0.0100878
      357.0000      285351.00      278157.60      -0.0601649

       6     121       19.5900     27.0000      1.00000      0.00000
      0.0000      283220.80      253299.90      -0.0058640
      3.0000      298237.60      253299.90      -0.0102752
      6.0000      297679.90      253299.90      0.0114413
      9.0000      294037.20      253299.90      -0.0588791
      12.0000      301559.90      253299.90      -0.0648885
      15.0000      298584.00      253299.90      -0.0017180
      18.0000      301888.70      253299.90      0.0069036
      21.0000      301062.20      253299.90      -0.0188842
      24.0000      306113.50      253299.90      -0.0275985
      27.0000      322627.70      253299.90      0.0490524
      30.0000      347286.70      253299.90      0.0507241
      33.0000      327891.60      253299.90      0.0052254
      36.0000      347618.70      253299.90      0.0938520
      39.0000      318052.80      253299.90      0.0490543
      42.0000      322747.70      253299.90      0.0004678
      45.0000      328160.20      253299.90      0.0107159
      48.0000      338038.30      253299.90      0.0268230
      51.0000      334616.80      253299.90      0.0445475
      54.0000      308957.40      253299.90      -0.0322029
      57.0000      315844.80      253299.90      -0.0050818
      60.0000      303905.90      253299.90      -0.0177804
      63.0000      291425.10      253299.90      -0.0541661
      66.0000      300988.80      253299.90      -0.0358742
      69.0000      300988.80      253299.90      -0.0181829
      72.0000      300988.80      253299.90      -0.0226482
      75.0000      244139.30      253299.90      -0.1328605
      78.0000      272014.80      253299.90      -0.1117613
      81.0000      271025.60      253299.90      -0.0851330
      84.0000      271025.60      253299.90      -0.0164110
      87.0000      273270.70      253299.90      -0.0278402
      90.0000      265604.30      253299.90      -0.0659212
      93.0000      251170.40      253299.90      -0.0835119
      96.0000      263225.80      253299.90      -0.0912579
      99.0000      248254.10      253299.90      -0.0680320
      102.0000      245253.20      253299.90      -0.1029260
      105.0000      252897.30      253299.90      -0.0640921
      108.0000      235903.50      253299.90      -0.0397886
      111.0000      249334.50      253299.90      -0.0492199
      114.0000      249334.50      253299.90      -0.0015062
      117.0000      245155.30      253299.90      0.0202994
      120.0000      249402.70      253299.90      0.0002392
      123.0000      228958.70      253299.90      0.0003073
      126.0000      266719.30      253299.90      0.0504580
      129.0000      270069.70      253299.90      0.0233933
      132.0000      257343.10      253299.90      0.1038831
      135.0000      269908.80      253299.90      0.0768212
      138.0000      265904.30      253299.90      0.0529296
      141.0000      265556.10      253299.90      0.0621719
      144.0000      269883.30      253299.90      0.0792388
      147.0000      280610.20      253299.90      0.1400135
      150.0000      270713.90      253299.90      0.0671874
      153.0000      250700.50      253299.90      0.0392499
      156.0000      259216.80      253299.90      0.0301441
      159.0000      259216.80      253299.90      0.0376794
      162.0000      284238.00      253299.90      0.1014884
      165.0000      258809.60      253299.90      0.0643259
      168.0000      258809.60      253299.90      0.0340438
      171.0000      230674.00      253299.90      -0.0442085
      174.0000      263837.80      253299.90      0.0484542
      177.0000      230749.60      253299.90      -0.0419144
      180.0000      239872.30      253299.90      -0.0058640
      183.0000      225654.30      253299.90      -0.0102752
      186.0000      234373.40      253299.90      0.0114413
      189.0000      204628.50      253299.90      -0.0588791
      192.0000      195448.60      253299.90      -0.0648885
      195.0000      223749.00      253299.90      -0.0017180
      198.0000      223749.00      253299.90      0.0069036
      201.0000      211838.60      253299.90      -0.0188843
      204.0000      203272.60      253299.90      -0.0275986
      207.0000      223093.40      253299.90      0.0490524
      210.0000      205479.30      253299.90      0.0507241
      213.0000      198228.80      253299.90      0.0052254
      216.0000      220511.20      253299.90      0.0938520
      219.0000      220511.20      253299.90      0.0490543
      222.0000      195818.40      253299.90      0.0004678
      225.0000      195117.30      253299.90      0.0107159
      228.0000      193802.60      253299.90      0.0268230
      231.0000      202164.30      253299.90      0.0445474
      234.0000      186904.40      253299.90      -0.0322029
      237.0000      192221.00      253299.90      -0.0050818
      240.0000      194103.90      253299.90      -0.0177804
      243.0000      186783.40      253299.90      -0.0541661
      246.0000      186750.50      253299.90      -0.0358742
      249.0000      193089.70      253299.90      -0.0181828
      252.0000      190417.00      253299.90      -0.0226482
      255.0000      184340.50      253299.90      -0.1328605
      258.0000      172750.70      253299.90      -0.1117613
      261.0000      183834.40      253299.90      -0.0851331
      264.0000      211774.60      253299.90      -0.0164111
      267.0000      205052.90      253299.90      -0.0278402
      270.0000      194497.70      253299.90      -0.0659211
      273.0000      197629.20      253299.90      -0.0835119
      276.0000      185180.10      253299.90      -0.0912579
      279.0000      206360.60      253299.90      -0.0680320
      282.0000      193897.00      253299.90      -0.1029260
      285.0000      204789.50      253299.90      -0.0640921
      288.0000      229233.30      253299.90      -0.0397887
      291.0000      214841.20      253299.90      -0.0492199
      294.0000      236543.80      253299.90      -0.0015062
      297.0000      250680.30      253299.90      0.0202994
      300.0000      239069.80      253299.90      0.0002392
      303.0000      258038.70      253299.90      0.0003074
      306.0000      249115.60      253299.90      0.0504580
      309.0000      234582.90      253299.90      0.0233933
      312.0000      285820.00      253299.90      0.1038831
      315.0000      262786.40      253299.90      0.0768212
      318.0000      256630.40      253299.90      0.0529296
      321.0000      263228.40      253299.90      0.0621719
      324.0000      269266.10      253299.90      0.0792388
      327.0000      291179.90      253299.90      0.1400135
      330.0000      266152.80      253299.90      0.0671874
      333.0000      275363.70      253299.90      0.0392499
      336.0000      263341.10      253299.90      0.0301441
      339.0000      269712.50      253299.90      0.0376794
      342.0000      278101.30      253299.90      0.1014884
      345.0000      290299.50      253299.90      0.0643260
      348.0000      275685.30      253299.90      0.0340438
      351.0000      268312.10      253299.90      -0.0442086
      354.0000      283274.40      253299.90      0.0484542
      357.0000      275577.80      253299.90      -0.0419143

       7     121       19.5900     30.0000      1.00000      0.00000
      0.0000      646423.70      585685.80      0.0244951
      3.0000      584377.50      585685.80      -0.0654927
      6.0000      661937.70      585685.80      0.0010068
      9.0000      651467.70      585685.80      -0.0388680
      12.0000      696352.10      585685.80      0.0182048
      15.0000      697141.90      585685.80      0.0217119
      18.0000      675906.40      585685.80      -0.0083552
      21.0000      643777.30      585685.80      -0.0270549
      24.0000      643777.30      585685.80      -0.0265281
      27.0000      649269.70      585685.80      -0.0317976
      30.0000      624959.70      585685.80      -0.0336211
      33.0000      693790.20      585685.80      -0.0300420
      36.0000      721675.90      585685.80      -0.0075037
      39.0000      694851.70      585685.80      -0.0403750
      42.0000      756014.70      585685.80      0.0287021
      45.0000      744750.50      585685.80      -0.0042725
      48.0000      782251.60      585685.80      0.0238040
      51.0000      740362.90      585685.80      -0.0318484
      54.0000      761634.30      585685.80      -0.0600146
      57.0000      718889.40      585685.80      -0.0382721
      60.0000      715748.40      585685.80      -0.0618897
      63.0000      706892.90      585685.80      -0.0398727
      66.0000      705174.20      585685.80      -0.0295456
      69.0000      671907.00      585685.80      -0.0487145
      72.0000      671907.00      585685.80      -0.0314132
      75.0000      618533.70      585685.80      -0.1011049
      78.0000      648129.30      585685.80      -0.0248226
      81.0000      647642.60      585685.80      -0.0500075
      84.0000      656573.00      585685.80      -0.0390431
      87.0000      648951.20      585685.80      -0.0303797
      90.0000      685134.20      585685.80      -0.0216878
      93.0000      663177.20      585685.80      -0.0075611
      96.0000      606077.50      585685.80      -0.0438831
      99.0000      606077.50      585685.80      -0.0298621
      102.0000      547841.10      585685.80      -0.0531791
      105.0000      578887.90      585685.80      0.0342560
      108.0000      605712.60      585685.80      -0.0481403
      111.0000      623972.90      585685.80      -0.0142106
      114.0000      604968.80      585685.80      -0.0032512
      117.0000      603990.10      585685.80      0.0250909
      120.0000      578269.80      585685.80      0.0343020
      123.0000      587264.10      585685.80      0.0411843
      126.0000      653739.10      585685.80      0.1068976
      129.0000      665517.10      585685.80      0.0837914
      132.0000      669393.50      585685.80      0.1394249
      135.0000      647998.40      585685.80      0.1514605
      138.0000      639621.20      585685.80      0.1356091
      141.0000      634311.30      585685.80      0.1328682
      144.0000      639801.10      585685.80      0.0638569
      147.0000      627651.70      585685.80      0.0656579
      150.0000      623930.10      585685.80      0.0960995
      153.0000      614032.00      585685.80      0.0059685
      156.0000      618680.70      585685.80      0.0684359
      159.0000      625856.10      585685.80      0.0687311
      162.0000      614232.20      585685.80      0.0221145
      165.0000      574785.10      585685.80      -0.0076139
      168.0000      570489.80      585685.80      -0.0524331
      171.0000      516462.00      585685.80      -0.0874070
      174.0000      535684.00      585685.80      -0.0889097
      177.0000      574379.80      585685.80      -0.0616190
      180.0000      571358.90      585685.80      0.0244951
      183.0000      524727.70      585685.80      -0.0654927
      186.0000      532391.70      585685.80      0.0010068
      189.0000      497791.80      585685.80      -0.0388680
      192.0000      521490.20      585685.80      0.0182048
      195.0000      523288.50      585685.80      0.0217119
      198.0000      507034.50      585685.80      -0.0083552
      201.0000      510463.90      585685.80      -0.0270549
      204.0000      509182.00      585685.80      -0.0265281
      207.0000      497906.70      585685.80      -0.0317976
      210.0000      511890.50      585685.80      -0.0336211
      213.0000      463450.50      585685.80      -0.0300420
      216.0000      463864.40      585685.80      -0.0075037
      219.0000      448766.40      585685.80      -0.0403750
      222.0000      471123.00      585685.80      0.0287021
      225.0000      444891.10      585685.80      -0.0042725
      228.0000      443810.50      585685.80      0.0238040
      231.0000      417400.40      585685.80      -0.0318484
      234.0000      373388.70      585685.80      -0.0600146
      237.0000      422606.80      585685.80      -0.0382721
      240.0000      400291.00      585685.80      -0.0618897
      243.0000      425922.70      585685.80      -0.0398727
      246.0000      435333.90      585685.80      -0.0295456
      249.0000      438738.60      585685.80      -0.0487145
      252.0000      453825.90      585685.80      -0.0314132
      255.0000      423447.90      585685.80      -0.1011049
      258.0000      474409.50      585685.80      -0.0248226
      261.0000      449508.10      585685.80      -0.0500075
      264.0000      452682.50      585685.80      -0.0390431
      267.0000      465736.30      585685.80      -0.0303797
      270.0000      447094.40      585685.80      -0.0216878
      273.0000      476352.50      585685.80      -0.0075611
      276.0000      483059.20      585685.80      -0.0438831
      279.0000      496955.00      585685.80      -0.0298621
      282.0000      518625.20      585685.80      -0.0531791
      285.0000      582655.00      585685.80      0.0342559
      288.0000      480705.20      585685.80      -0.0481403
      291.0000      501361.70      585685.80      -0.0142106
      294.0000      528912.90      585685.80      -0.0032513
      297.0000      560505.10      585685.80      0.0250909
      300.0000      593599.60      585685.80      0.0343020
      303.0000      596138.20      585685.80      0.0411843
      306.0000      611813.20      585685.80      0.1068977
      309.0000      579850.30      585685.80      0.0837914
      312.0000      639724.40      585685.80      0.1394249
      315.0000      676330.80      585685.80      0.1514605
      318.0000      671175.50      585685.80      0.1356091
      321.0000      678082.40      585685.80      0.1328682
      324.0000      598831.70      585685.80      0.0638569
      327.0000      617321.10      585685.80      0.0656579
      330.0000      662022.30      585685.80      0.0960995
      333.0000      569645.20      585685.80      0.0059685
      336.0000      645642.40      585685.80      0.0684359
      339.0000      644045.70      585685.80      0.0687311
      342.0000      604013.00      585685.80      0.0221145
      345.0000      616754.30      585685.80      -0.0076139
      348.0000      569122.90      585685.80      -0.0524331
      351.0000      593655.70      585685.80      -0.0874069
      354.0000      574112.40      585685.80      -0.0889097
      357.0000      568450.90      585685.80      -0.0616190

       8     121       19.5900     33.0000      1.00000      0.00000
      0.0000      524347.30      546084.00      0.0469305
      3.0000      541758.10      546084.00      0.0419821
      6.0000      556036.40      546084.00      0.0420782
      9.0000      572927.30      546084.00      0.0046097
      12.0000      572462.40      546084.00      0.0001167
      15.0000      557457.60      546084.00      -0.0126906
      18.0000      551838.70      546084.00      -0.0242192
      21.0000      538480.60      546084.00      -0.0364669
      24.0000      585371.60      546084.00      -0.0493621
      27.0000      528799.80      546084.00      -0.0676750
      30.0000      539058.50      546084.00      -0.0901590
      33.0000      557466.80      546084.00      -0.0808130
      36.0000      577628.70      546084.00      -0.0671067
      39.0000      608681.50      546084.00      -0.0295106
      42.0000      627355.10      546084.00      -0.0028807
      45.0000      660238.30      546084.00      0.0056262
      48.0000      681836.70      546084.00      0.0270974
      51.0000      637184.60      546084.00      -0.0145818
      54.0000      639082.50      546084.00      -0.0105828
      57.0000      655033.00      546084.00      0.0186515
      60.0000      627978.70      546084.00      -0.0525901
      63.0000      609519.10      546084.00      -0.0520559
      66.0000      574417.50      546084.00      -0.0449229
      69.0000      562882.50      546084.00      -0.0952795
      72.0000      532086.10      546084.00      -0.1095540
      75.0000      540198.60      546084.00      -0.1183506
      78.0000      538409.80      546084.00      -0.1068493
      81.0000      526095.70      546084.00      -0.1202388
      84.0000      569455.00      546084.00      -0.0495095
      87.0000      566774.70      546084.00      -0.1126548
      90.0000      625326.80      546084.00      -0.0181201
      93.0000      610051.30      546084.00      -0.0296365
      96.0000      627534.80      546084.00      0.0115991
      99.0000      607964.30      546084.00      -0.0308161
      102.0000      598638.50      546084.00      0.0101402
      105.0000      607423.50      546084.00      0.0297069
      108.0000      602201.40      546084.00      0.0305928
      111.0000      578880.80      546084.00      -0.0473587
      114.0000      595730.00      546084.00      0.0210904
      117.0000      586485.90      546084.00      0.0034981
      120.0000      651487.60      546084.00      0.0097478
      123.0000      571795.40      546084.00      0.0463299
      126.0000      632103.10      546084.00      0.0987637
      129.0000      644559.20      546084.00      0.1163118
      132.0000      654008.50      546084.00      0.1433698
      135.0000      627858.40      546084.00      0.0852369
      138.0000      637434.50      546084.00      0.1505559
      141.0000      664726.50      546084.00      0.1620597
      144.0000      630803.10      546084.00      0.1574763
      147.0000      625783.00      546084.00      0.1458850
      150.0000      618262.60      546084.00      0.1238682
      153.0000      598899.00      546084.00      0.0706136
      156.0000      585064.20      546084.00      0.0839530
      159.0000      540565.70      546084.00      0.0202742
      162.0000      577960.50      546084.00      0.0102738
      165.0000      535143.10      546084.00      -0.0352138
      168.0000      535308.00      546084.00      -0.0400604
      171.0000      529494.20      546084.00      -0.0547615
      174.0000      553930.30      546084.00      -0.0405752
      177.0000      507670.50      546084.00      -0.1145930
      180.0000      552033.40      546084.00      0.0469305
      183.0000      535064.80      546084.00      0.0419821
      186.0000      526218.20      546084.00      0.0420782
      189.0000      477016.00      546084.00      0.0046097
      192.0000      477016.00      546084.00      0.0001167
      195.0000      481117.00      546084.00      -0.0126905
      198.0000      477347.60      546084.00      -0.0242192
      201.0000      478989.60      546084.00      -0.0364669
      204.0000      428547.30      546084.00      -0.0493621
      207.0000      459763.10      546084.00      -0.0676750
      210.0000      430830.00      546084.00      -0.0901590
      213.0000      425851.20      546084.00      -0.0808130
      216.0000      423643.50      546084.00      -0.0671067
      219.0000      435390.30      546084.00      -0.0295106
      222.0000      446461.70      546084.00      -0.0028807
      225.0000      429595.70      546084.00      0.0056262
      228.0000      433592.90      546084.00      0.0270974
      231.0000      429256.60      546084.00      -0.0145818
      234.0000      431731.30      546084.00      -0.0105828
      237.0000      446817.00      546084.00      0.0186515
      240.0000      401712.90      546084.00      -0.0525901
      243.0000      415958.80      546084.00      -0.0520559
      246.0000      448411.40      546084.00      -0.0449229
      249.0000      410972.40      546084.00      -0.0952795
      252.0000      420696.80      546084.00      -0.1095539
      255.0000      406846.90      546084.00      -0.1183506
      258.0000      418897.60      546084.00      -0.1068493
      261.0000      416090.30      546084.00      -0.1202388
      264.0000      449252.00      546084.00      -0.0495094
      267.0000      393797.70      546084.00      -0.1126548
      270.0000      437762.30      546084.00      -0.0181201
      273.0000      439391.70      546084.00      -0.0296365
      276.0000      465483.20      546084.00      0.0115991
      279.0000      441955.00      546084.00      -0.0308162
      282.0000      489122.90      546084.00      0.0101402
      285.0000      502649.20      546084.00      0.0297068
      288.0000      509734.70      546084.00      0.0305928
      291.0000      455493.90      546084.00      -0.0473587
      294.0000      510726.30      546084.00      0.0210904
      297.0000      503866.40      546084.00      0.0034981
      300.0000      458353.10      546084.00      0.0097479
      303.0000      565928.20      546084.00      0.0463299
      306.0000      571126.90      546084.00      0.0987637
      309.0000      582453.30      546084.00      0.1163118
      312.0000      606824.90      546084.00      0.1433698
      315.0000      574179.10      546084.00      0.0852370
      318.0000      640685.80      546084.00      0.1505559
      321.0000      632981.20      546084.00      0.1620597
      324.0000      667522.50      546084.00      0.1574763
      327.0000      666473.60      546084.00      0.1458850
      330.0000      656079.10      546084.00      0.1238682
      333.0000      621318.80      546084.00      0.0706136
      336.0000      659495.40      546084.00      0.0839529
      339.0000      639679.40      546084.00      0.0202742
      342.0000      591931.70      546084.00      0.0102739
      345.0000      591931.70      546084.00      -0.0352138
      348.0000      592850.40      546084.00      -0.0400604
      351.0000      588191.60      546084.00      -0.0547615
      354.0000      583265.80      546084.00      -0.0405752
      357.0000      549744.60      546084.00      -0.1145930

       9     121       19.5900     36.0000      1.00000      0.00000
      0.0000      511218.20      459953.50      0.0611978
      3.0000      534325.90      459953.50      0.0907893
      6.0000      554947.60      459953.50      0.1060394
      9.0000      563654.80      459953.50      0.0999818
      12.0000      557898.20      459953.50      0.0796448
      15.0000      551445.60      459953.50      0.0553583
      18.0000      543276.90      459953.50      0.0401107
      21.0000      537034.20      459953.50      0.0229156
      24.0000      518377.60      459953.50      -0.0089716
      27.0000      481108.80      459953.50      -0.0771225
      30.0000      467451.70      459953.50      -0.1035034
      33.0000      469542.50      459953.50      -0.1260805
      36.0000      469542.50      459953.50      -0.1195705
      39.0000      509086.50      459953.50      -0.0785748
      42.0000      525791.30      459953.50      -0.0608660
      45.0000      517453.00      459953.50      -0.0714143
      48.0000      521204.50      459953.50      -0.0659277
      51.0000      516723.80      459953.50      -0.0854772
      54.0000      517961.90      459953.50      -0.0812454
      57.0000      517535.20      459953.50      -0.0703327
      60.0000      509980.00      459953.50      -0.0770992
      63.0000      496686.40      459953.50      -0.0970234
      66.0000      487006.90      459953.50      -0.1074069
      69.0000      469003.60      459953.50      -0.1371424
      72.0000      460493.70      459953.50      -0.1608122
      75.0000      481828.80      459953.50      -0.1264264
      78.0000      516464.80      459953.50      -0.0713981
      81.0000      530731.30      459953.50      -0.0369529
      84.0000      561681.40      459953.50      0.0145595
      87.0000      546467.10      459953.50      0.0102806
      90.0000      562110.70      459953.50      0.0365480
      93.0000      592247.40      459953.50      0.0887561
      96.0000      576275.90      459953.50      0.0987363
      99.0000      544794.80      459953.50      0.0659076
      102.0000      534418.40      459953.50      0.0573523
      105.0000      511334.20      459953.50      0.0263304
      108.0000      507548.90      459953.50      0.0335920
      111.0000      489306.00      459953.50      0.0026201
      114.0000      528027.40      459953.50      0.0373183
      117.0000      523555.30      459953.50      0.0284697
      120.0000      520875.00      459953.50      0.0236768
      123.0000      519956.30      459953.50      0.0321210
      126.0000      512706.00      459953.50      0.0535164
      129.0000      508018.60      459953.50      0.0490481
      132.0000      506155.70      459953.50      0.0506086
      135.0000      505476.90      459953.50      0.0740739
      138.0000      506225.10      459953.50      0.0874328
      141.0000      501359.00      459953.50      0.0980368
      144.0000      481466.40      459953.50      0.0798383
      147.0000      455373.30      459953.50      0.0578389
      150.0000      446205.80      459953.50      0.0392714
      153.0000      461749.00      459953.50      0.0370549
      156.0000      467318.40      459953.50      0.0364830
      159.0000      461818.30      459953.50      0.0239680
      162.0000      458806.00      459953.50      0.0062453
      165.0000      451739.20      459953.50      -0.0090252
      168.0000      450715.10      459953.50      -0.0071523
      171.0000      442401.60      459953.50      -0.0276609
      174.0000      451575.60      459953.50      -0.0157530
      177.0000      448440.00      459953.50      -0.0299279
      180.0000      453103.00      459953.50      0.0611978
      183.0000      459295.60      459953.50      0.0907893
      186.0000      455602.30      459953.50      0.1060394
      189.0000      444114.00      459953.50      0.0999818
      192.0000      432484.90      459953.50      0.0796448
      195.0000      418021.20      459953.50      0.0553583
      198.0000      411962.00      459953.50      0.0401107
      201.0000      402668.10      459953.50      0.0229156
      204.0000      390987.60      459953.50      -0.0089716
      207.0000      364605.00      459953.50      -0.0771225
      210.0000      353303.40      459953.50      -0.1035034
      213.0000      333500.00      459953.50      -0.1260805
      216.0000      337619.60      459953.50      -0.1195705
      219.0000      339788.20      459953.50      -0.0785748
      222.0000      340475.00      459953.50      -0.0608660
      225.0000      337388.60      459953.50      -0.0714143
      228.0000      337891.80      459953.50      -0.0659277
      231.0000      325376.10      459953.50      -0.0854772
      234.0000      326701.80      459953.50      -0.0812454
      237.0000      334133.50      459953.50      -0.0703327
      240.0000      333356.00      459953.50      -0.0770992
      243.0000      326841.80      459953.50      -0.0970233
      246.0000      324989.10      459953.50      -0.1074069
      249.0000      314664.10      459953.50      -0.1371424
      252.0000      302409.00      459953.50      -0.1608122
      255.0000      312523.70      459953.50      -0.1264264
      258.0000      328716.80      459953.50      -0.0713981
      261.0000      343872.60      459953.50      -0.0369529
      264.0000      360129.00      459953.50      0.0145596
      267.0000      367475.40      459953.50      0.0102805
      270.0000      375982.20      459953.50      0.0365480
      273.0000      393719.90      459953.50      0.0887561
      276.0000      413185.10      459953.50      0.0987363
      279.0000      411942.40      459953.50      0.0659076
      282.0000      414005.90      459953.50      0.0573523
      285.0000      408569.10      459953.50      0.0263304
      288.0000      418534.20      459953.50      0.0335920
      291.0000      409980.70      459953.50      0.0026202
      294.0000      408756.70      459953.50      0.0373183
      297.0000      407034.50      459953.50      0.0284697
      300.0000      407297.10      459953.50      0.0236768
      303.0000      417209.40      459953.50      0.0321210
      306.0000      443844.90      459953.50      0.0535164
      309.0000      447164.60      459953.50      0.0490481
      312.0000      453433.90      459953.50      0.0506086
      315.0000      478181.90      459953.50      0.0740739
      318.0000      493468.90      459953.50      0.0874328
      321.0000      512277.60      459953.50      0.0980368
      324.0000      520195.90      459953.50      0.0798383
      327.0000      531547.40      459953.50      0.0578390
      330.0000      529379.70      459953.50      0.0392714
      333.0000      516670.70      459953.50      0.0370549
      336.0000      515868.50      459953.50      0.0364830
      339.0000      515389.50      459953.50      0.0239680
      342.0000      506623.90      459953.50      0.0062453
      345.0000      505020.50      459953.50      -0.0090252
      348.0000      514499.20      459953.50      -0.0071523
      351.0000      508902.20      459953.50      -0.0276609
      354.0000      516689.10      459953.50      -0.0157531
      357.0000      511124.20      459953.50      -0.0299279

       10     121       19.5900     39.0000      1.00000      0.00000
      0.0000      508205.80      432720.00      0.0527941
      3.0000      522373.60      432720.00      0.0573319
      6.0000      531735.10      432720.00      0.0677471
      9.0000      546679.60      432720.00      0.0779222
      12.0000      559828.00      432720.00      0.0996450
      15.0000      561694.30      432720.00      0.0830903
      18.0000      569450.90      432720.00      0.0801291
      21.0000      548637.10      432720.00      0.0473068
      24.0000      524348.40      432720.00      0.0183585
      27.0000      485591.90      432720.00      -0.0460906
      30.0000      461080.40      432720.00      -0.1011756
      33.0000      458162.00      432720.00      -0.1123813
      36.0000      481790.20      432720.00      -0.0826684
      39.0000      497553.70      432720.00      -0.0519155
      42.0000      502217.10      432720.00      -0.0484904
      45.0000      484397.60      432720.00      -0.0795792
      48.0000      486831.70      432720.00      -0.0820774
      51.0000      479732.60      432720.00      -0.1026062
      54.0000      485811.20      432720.00      -0.0946140
      57.0000      490304.40      432720.00      -0.0836478
      60.0000      505921.50      432720.00      -0.0486007
      63.0000      492264.40      432720.00      -0.0657390
      66.0000      470973.30      432720.00      -0.0930514
      69.0000      432694.30      432720.00      -0.1638100
      72.0000      443824.30      432720.00      -0.1443061
      75.0000      480207.30      432720.00      -0.1070778
      78.0000      506269.40      432720.00      -0.0549613
      81.0000      506269.40      432720.00      -0.0285918
      84.0000      529638.00      432720.00      0.0100765
      87.0000      553853.70      432720.00      0.0597931
      90.0000      532806.60      432720.00      0.0350403
      93.0000      532023.60      432720.00      0.0394064
      96.0000      517129.40      432720.00      0.0446315
      99.0000      501179.10      432720.00      0.0389185
      102.0000      502906.50      432720.00      0.0381787
      105.0000      487954.40      432720.00      0.0213219
      108.0000      491562.00      432720.00      0.0360390
      111.0000      514474.40      432720.00      0.0439043
      114.0000      547073.20      432720.00      0.0874890
      117.0000      536539.40      432720.00      0.0780190
      120.0000      522604.60      432720.00      0.0747674
      123.0000      499318.90      432720.00      0.0508762
      126.0000      491476.30      432720.00      0.0433462
      129.0000      480974.90      432720.00      0.0295164
      132.0000      474483.80      432720.00      0.0197061
      135.0000      456078.80      432720.00      -0.0034322
      138.0000      432769.10      432720.00      -0.0324705
      141.0000      425057.90      432720.00      -0.0295844
      144.0000      424077.60      432720.00      -0.0348308
      147.0000      439748.20      432720.00      -0.0107067
      150.0000      442445.30      432720.00      0.0096155
      153.0000      460611.50      432720.00      0.0344753
      156.0000      458535.40      432720.00      0.0404754
      159.0000      451338.30      432720.00      0.0404810
      162.0000      441332.00      432720.00      0.0460415
      165.0000      438135.40      432720.00      0.0644050
      168.0000      429322.10      432720.00      0.0481672
      171.0000      432294.00      432720.00      0.0246504
      174.0000      430101.90      432720.00      0.0136238
      177.0000      430756.20      432720.00      0.0080445
      180.0000      421066.30      432720.00      0.0527941
      183.0000      413209.10      432720.00      0.0573319
      186.0000      413664.60      432720.00      0.0677471
      189.0000      409433.20      432720.00      0.0779222
      192.0000      415305.90      432720.00      0.0996450
      195.0000      400406.80      432720.00      0.0830903
      198.0000      391398.80      432720.00      0.0801291
      201.0000      380861.10      432720.00      0.0473068
      204.0000      375488.10      432720.00      0.0183585
      207.0000      354175.30      432720.00      -0.0460906
      210.0000      329737.20      432720.00      -0.1011756
      213.0000      322119.20      432720.00      -0.1123813
      216.0000      325596.10      432720.00      -0.0826684
      219.0000      335073.90      432720.00      -0.0519155
      222.0000      332620.20      432720.00      -0.0484904
      225.0000      321002.40      432720.00      -0.0795792
      228.0000      315955.90      432720.00      -0.0820774
      231.0000      304762.50      432720.00      -0.1026062
      234.0000      304676.50      432720.00      -0.0946140
      237.0000      307673.40      432720.00      -0.0836478
      240.0000      319859.50      432720.00      -0.0486007
      243.0000      315507.80      432720.00      -0.0657390
      246.0000      309330.70      432720.00      -0.0930514
      249.0000      284936.90      432720.00      -0.1638100
      252.0000      289700.80      432720.00      -0.1443061
      255.0000      289981.80      432720.00      -0.1070778
      258.0000      307019.30      432720.00      -0.0549613
      261.0000      323787.80      432720.00      -0.0285918
      264.0000      333563.10      432720.00      0.0100765
      267.0000      350302.00      432720.00      0.0597931
      270.0000      346818.90      432720.00      0.0350403
      273.0000      349763.40      432720.00      0.0394064
      276.0000      363150.10      432720.00      0.0446315
      279.0000      370130.30      432720.00      0.0389185
      282.0000      368551.90      432720.00      0.0381787
      285.0000      367691.70      432720.00      0.0213219
      288.0000      376007.70      432720.00      0.0360390
      291.0000      365583.40      432720.00      0.0439043
      294.0000      373318.60      432720.00      0.0874889
      297.0000      375210.60      432720.00      0.0780190
      300.0000      384593.20      432720.00      0.0747674
      303.0000      386551.60      432720.00      0.0508762
      306.0000      388870.40      432720.00      0.0433462
      309.0000      388870.40      432720.00      0.0295164
      312.0000      388870.40      432720.00      0.0197061
      315.0000      388870.40      432720.00      -0.0034322
      318.0000      388870.40      432720.00      -0.0324705
      321.0000      401060.10      432720.00      -0.0295844
      324.0000      400932.60      432720.00      -0.0348308
      327.0000      409615.70      432720.00      -0.0107067
      330.0000      427835.20      432720.00      0.0096156
      333.0000      435091.40      432720.00      0.0344753
      336.0000      446560.40      432720.00      0.0404754
      339.0000      458578.10      432720.00      0.0404810
      342.0000      479439.70      432720.00      0.0460415
      345.0000      505708.50      432720.00      0.0644050
      348.0000      506416.00      432720.00      0.0481672
      351.0000      485908.60      432720.00      0.0246503
      354.0000      483329.50      432720.00      0.0136237
      357.0000      482537.60      432720.00      0.0080445

       11     121       19.5900     42.0000      1.00000      0.00000
      0.0000      424676.60      368331.10      0.0409151
      3.0000      431854.20      368331.10      0.0522451
      6.0000      426134.10      368331.10      0.0393271
      9.0000      418447.30      368331.10      0.0079294
      12.0000      440252.90      368331.10      0.0270831
      15.0000      456544.00      368331.10      0.0369895
      18.0000      458285.60      368331.10      0.0374797
      21.0000      447141.10      368331.10      0.0250358
      24.0000      444205.40      368331.10      0.0017813
      27.0000      415127.20      368331.10      -0.0504861
      30.0000      381631.50      368331.10      -0.1000745
      33.0000      372092.70      368331.10      -0.1167214
      36.0000      384988.80      368331.10      -0.0749562
      39.0000      406949.20      368331.10      -0.0528949
      42.0000      410088.90      368331.10      -0.0458553
      45.0000      415229.80      368331.10      -0.0455870
      48.0000      412662.00      368331.10      -0.0482825
      51.0000      412284.00      368331.10      -0.0562088
      54.0000      410488.00      368331.10      -0.0474628
      57.0000      404292.00      368331.10      -0.0687368
      60.0000      403068.60      368331.10      -0.0526099
      63.0000      397401.20      368331.10      -0.0596348
      66.0000      381763.10      368331.10      -0.0739030
      69.0000      367271.60      368331.10      -0.1061813
      72.0000      370608.60      368331.10      -0.1117185
      75.0000      394725.90      368331.10      -0.0826823
      78.0000      412898.20      368331.10      -0.0337817
      81.0000      418100.70      368331.10      -0.0280112
      84.0000      430302.00      368331.10      0.0048532
      87.0000      417075.60      368331.10      -0.0016292
      90.0000      397547.00      368331.10      -0.0126846
      93.0000      391388.20      368331.10      -0.0137675
      96.0000      394778.00      368331.10      -0.0060524
      99.0000      394298.10      368331.10      -0.0104495
      102.0000      393005.60      368331.10      0.0062185
      105.0000      379231.50      368331.10      -0.0029573
      108.0000      380019.90      368331.10      0.0155120
      111.0000      408309.80      368331.10      0.0446342
      114.0000      416940.30      368331.10      0.0554081
      117.0000      423999.60      368331.10      0.0660643
      120.0000      423831.10      368331.10      0.0697968
      123.0000      423345.30      368331.10      0.0880785
      126.0000      424982.70      368331.10      0.1153768
      129.0000      424982.70      368331.10      0.1323571
      132.0000      418316.80      368331.10      0.1180369
      135.0000      373973.30      368331.10      0.0148765
      138.0000      367816.10      368331.10      -0.0136914
      141.0000      358702.90      368331.10      -0.0429477
      144.0000      364579.10      368331.10      -0.0333196
      147.0000      377358.50      368331.10      -0.0039067
      150.0000      382213.80      368331.10      0.0460766
      153.0000      395302.50      368331.10      0.0805289
      156.0000      397313.10      368331.10      0.0907008
      159.0000      380584.40      368331.10      0.0625191
      162.0000      361651.00      368331.10      0.0426764
      165.0000      359122.50      368331.10      0.0509174
      168.0000      346477.50      368331.10      0.0393908
      171.0000      344859.30      368331.10      0.0076016
      174.0000      339727.90      368331.10      -0.0189967
      177.0000      335703.70      368331.10      -0.0390309
      180.0000      334993.80      368331.10      0.0409151
      183.0000      336802.30      368331.10      0.0522451
      186.0000      333002.60      368331.10      0.0393271
      189.0000      318728.20      368331.10      0.0079294
      192.0000      313870.20      368331.10      0.0270831
      195.0000      307460.20      368331.10      0.0369895
      198.0000      306100.70      368331.10      0.0374797
      201.0000      306133.50      368331.10      0.0250358
      204.0000      293307.20      368331.10      0.0017813
      207.0000      281685.10      368331.10      -0.0504860
      210.0000      274817.40      368331.10      -0.1000745
      213.0000      270754.40      368331.10      -0.1167214
      216.0000      286074.70      368331.10      -0.0749561
      219.0000      283001.60      368331.10      -0.0528949
      222.0000      284201.90      368331.10      -0.0458553
      225.0000      279946.90      368331.10      -0.0455870
      228.0000      279355.00      368331.10      -0.0482825
      231.0000      274148.30      368331.10      -0.0562088
      234.0000      279899.90      368331.10      -0.0474628
      237.0000      270925.10      368331.10      -0.0687368
      240.0000      280764.10      368331.10      -0.0526099
      243.0000      280034.90      368331.10      -0.0596348
      246.0000      282107.10      368331.10      -0.0739030
      249.0000      272795.70      368331.10      -0.1061813
      252.0000      266897.40      368331.10      -0.1117185
      255.0000      266881.70      368331.10      -0.0826823
      258.0000      283045.50      368331.10      -0.0337817
      261.0000      282731.20      368331.10      -0.0280112
      264.0000      293780.00      368331.10      0.0048532
      267.0000      299821.50      368331.10      -0.0016292
      270.0000      308067.60      368331.10      -0.0126847
      273.0000      312720.00      368331.10      -0.0137676
      276.0000      315757.70      368331.10      -0.0060524
      279.0000      314348.20      368331.10      -0.0104495
      282.0000      327056.80      368331.10      0.0062185
      285.0000      333646.30      368331.10      -0.0029573
      288.0000      346622.60      368331.10      0.0155120
      291.0000      344017.10      368331.10      0.0446342
      294.0000      345699.10      368331.10      0.0554081
      297.0000      348709.70      368331.10      0.0660643
      300.0000      353500.70      368331.10      0.0697968
      303.0000      368874.80      368331.10      0.0880785
      306.0000      389163.10      368331.10      0.1153768
      309.0000      404333.10      368331.10      0.1323571
      312.0000      403850.90      368331.10      0.1180369
      315.0000      375572.90      368331.10      0.0148765
      318.0000      363979.90      368331.10      -0.0136915
      321.0000      354684.40      368331.10      -0.0429477
      324.0000      359323.90      368331.10      -0.0333196
      327.0000      372090.60      368331.10      -0.0039067
      330.0000      410829.40      368331.10      0.0460765
      333.0000      428524.60      368331.10      0.0805288
      336.0000      439584.40      368331.10      0.0907008
      339.0000      441338.50      368331.10      0.0625191
      342.0000      453654.80      368331.10      0.0426764
      345.0000      470443.20      368331.10      0.0509174
      348.0000      483594.00      368331.10      0.0393908
      351.0000      462984.40      368331.10      0.0076016
      354.0000      451471.30      368331.10      -0.0189967
      357.0000      444266.90      368331.10      -0.0390309

       12     121       19.5900     45.0000      1.00000      0.00000
      0.0000      386075.40      347258.00      0.0067636
      3.0000      399171.90      347258.00      0.0222574
      6.0000      413185.80      347258.00      0.0295952
      9.0000      394155.30      347258.00      -0.0129677
      12.0000      389095.10      347258.00      -0.0284338
      15.0000      405907.30      347258.00      -0.0120094
      18.0000      431226.70      347258.00      0.0047595
      21.0000      440011.40      347258.00      0.0369215
      24.0000      415027.10      347258.00      -0.0050847
      27.0000      411497.40      347258.00      -0.0209017
      30.0000      387745.00      347258.00      -0.0556053
      33.0000      381008.30      347258.00      -0.0854148
      36.0000      387884.20      347258.00      -0.0667004
      39.0000      390783.80      347258.00      -0.0775306
      42.0000      415599.20      347258.00      -0.0339778
      45.0000      450179.40      347258.00      0.0166295
      48.0000      450179.40      347258.00      0.0443877
      51.0000      461650.70      347258.00      0.0688879
      54.0000      456056.40      347258.00      0.0511401
      57.0000      435192.50      347258.00      0.0307438
      60.0000      405715.20      347258.00      -0.0280306
      63.0000      385638.50      347258.00      -0.0801740
      66.0000      373606.20      347258.00      -0.0996925
      69.0000      360983.10      347258.00      -0.1157894
      72.0000      379199.80      347258.00      -0.0949734
      75.0000      380003.60      347258.00      -0.0948746
      78.0000      395793.50      347258.00      -0.0678537
      81.0000      400956.40      347258.00      -0.0340959
      84.0000      407966.30      347258.00      -0.0228167
      87.0000      383949.50      347258.00      -0.0459480
      90.0000      379517.70      347258.00      -0.0573837
      93.0000      373755.90      347258.00      -0.0474714
      96.0000      371896.10      347258.00      -0.0490901
      99.0000      381840.80      347258.00      0.0078987
      102.0000      396263.90      347258.00      0.0418498
      105.0000      387501.40      347258.00      0.0101491
      108.0000      387632.80      347258.00      0.0254382
      111.0000      389863.00      347258.00      0.0262042
      114.0000      403518.40      347258.00      0.0462817
      117.0000      404797.10      347258.00      0.0717194
      120.0000      401615.80      347258.00      0.0728105
      123.0000      397810.80      347258.00      0.0738369
      126.0000      405470.00      347258.00      0.1119627
      129.0000      394681.00      347258.00      0.1234842
      132.0000      378991.80      347258.00      0.0756146
      135.0000      371117.20      347258.00      0.0449896
      138.0000      374414.10      347258.00      0.0415052
      141.0000      372096.50      347258.00      0.0423590
      144.0000      371370.00      347258.00      0.0291092
      147.0000      358313.70      347258.00      0.0048195
      150.0000      353628.00      347258.00      0.0226925
      153.0000      357964.30      347258.00      0.0742926
      156.0000      364673.00      347258.00      0.0816644
      159.0000      348449.90      347258.00      0.0389079
      162.0000      340193.40      347258.00      0.0103739
      165.0000      337028.40      347258.00      0.0082052
      168.0000      330157.70      347258.00      -0.0096638
      171.0000      318622.00      347258.00      -0.0431757
      174.0000      316115.40      347258.00      -0.0660889
      177.0000      314037.10      347258.00      -0.0736679
      180.0000      322272.20      347258.00      0.0067636
      183.0000      321349.20      347258.00      0.0222574
      186.0000      314618.40      347258.00      0.0295952
      189.0000      302688.00      347258.00      -0.0129677
      192.0000      296486.20      347258.00      -0.0284338
      195.0000      293111.10      347258.00      -0.0120094
      198.0000      283737.30      347258.00      0.0047595
      201.0000      295643.90      347258.00      0.0369215
      204.0000      287852.20      347258.00      -0.0050847
      207.0000      280027.10      347258.00      -0.0209017
      210.0000      275437.00      347258.00      -0.0556053
      213.0000      261753.90      347258.00      -0.0854148
      216.0000      266546.40      347258.00      -0.0667004
      219.0000      257181.80      347258.00      -0.0775306
      222.0000      263752.30      347258.00      -0.0339779
      225.0000      267628.30      347258.00      0.0166295
      228.0000      281896.40      347258.00      0.0443877
      231.0000      286547.10      347258.00      0.0688879
      234.0000      279100.60      347258.00      0.0511401
      237.0000      280428.00      347258.00      0.0307438
      240.0000      266383.40      347258.00      -0.0280306
      243.0000      249927.50      347258.00      -0.0801740
      246.0000      246217.60      347258.00      -0.0996925
      249.0000      244890.20      347258.00      -0.1157893
      252.0000      243339.40      347258.00      -0.0949734
      255.0000      242084.50      347258.00      -0.0948746
      258.0000      245598.80      347258.00      -0.0678537
      261.0000      260033.00      347258.00      -0.0340959
      264.0000      260926.70      347258.00      -0.0228167
      267.0000      264170.20      347258.00      -0.0459480
      270.0000      260613.60      347258.00      -0.0573838
      273.0000      270025.50      347258.00      -0.0474714
      276.0000      270452.80      347258.00      -0.0490901
      279.0000      295677.40      347258.00      0.0078987
      282.0000      304916.80      347258.00      0.0418498
      285.0000      293733.70      347258.00      0.0101491
      288.0000      303111.20      347258.00      0.0254383
      291.0000      302703.90      347258.00      0.0262042
      294.0000      304934.70      347258.00      0.0462817
      297.0000      320140.30      347258.00      0.0717193
      300.0000      324685.30      347258.00      0.0728105
      303.0000      329967.30      347258.00      0.0738369
      306.0000      348916.10      347258.00      0.1119627
      309.0000      367487.90      347258.00      0.1234842
      312.0000      353296.60      347258.00      0.0756146
      315.0000      343142.80      347258.00      0.0449896
      318.0000      340433.10      347258.00      0.0415052
      321.0000      345843.10      347258.00      0.0423590
      324.0000      340391.40      347258.00      0.0291092
      327.0000      339418.80      347258.00      0.0048195
      330.0000      359862.00      347258.00      0.0226925
      333.0000      395957.50      347258.00      0.0742926
      336.0000      398392.80      347258.00      0.0816644
      339.0000      388848.60      347258.00      0.0389079
      342.0000      380944.20      347258.00      0.0103739
      345.0000      387394.80      347258.00      0.0082052
      348.0000      386169.30      347258.00      -0.0096639
      351.0000      378132.10      347258.00      -0.0431757
      354.0000      367036.80      347258.00      -0.0660889
      357.0000      367923.80      347258.00      -0.0736679

       13     121       19.5900     48.0000      1.00000      0.00000
      0.0000      347209.00      323421.70      0.0112848
      3.0000      360836.30      323421.70      0.0294895
      6.0000      349286.00      323421.70      0.0049597
      9.0000      350921.90      323421.70      -0.0074776
      12.0000      351158.70      323421.70      0.0025115
      15.0000      352264.20      323421.70      -0.0134106
      18.0000      372068.50      323421.70      0.0192790
      21.0000      372245.90      323421.70      -0.0064603
      24.0000      371080.10      323421.70      -0.0143126
      27.0000      358476.10      323421.70      -0.0579352
      30.0000      354805.20      323421.70      -0.0454368
      33.0000      346541.70      323421.70      -0.0821814
      36.0000      362928.80      323421.70      -0.0599859
      39.0000      378181.80      323421.70      -0.0349252
      42.0000      398617.30      323421.70      0.0073402
      45.0000      407319.90      323421.70      0.0321163
      48.0000      397218.60      323421.70      0.0230623
      51.0000      389240.00      323421.70      0.0179924
      54.0000      388977.60      323421.70      0.0156470
      57.0000      385545.30      323421.70      -0.0021652
      60.0000      390219.90      323421.70      0.0106130
      63.0000      380925.30      323421.70      -0.0349143
      66.0000      344721.10      323421.70      -0.0943466
      69.0000      334399.30      323421.70      -0.1036619
      72.0000      337964.60      323421.70      -0.1029797
      75.0000      342714.10      323421.70      -0.0904873
      78.0000      347757.30      323421.70      -0.0728234
      81.0000      346813.20      323421.70      -0.0835053
      84.0000      362878.20      323421.70      -0.0313060
      87.0000      347024.80      323421.70      -0.0714445
      90.0000      344076.20      323421.70      -0.0745423
      93.0000      351122.80      323421.70      -0.0469689
      96.0000      346974.40      323421.70      -0.0528980
      99.0000      344890.60      323421.70      -0.0449785
      102.0000      351847.90      323421.70      -0.0044500
      105.0000      346512.30      323421.70      -0.0302146
      108.0000      347367.40      323421.70      -0.0255610
      111.0000      347620.20      323421.70      -0.0088304
      114.0000      362432.80      323421.70      0.0142458
      117.0000      368021.50      323421.70      0.0302271
      120.0000      363786.60      323421.70      0.0527451
      123.0000      362419.10      323421.70      0.0537181
      126.0000      380737.20      323421.70      0.0962046
      129.0000      381067.40      323421.70      0.1094031
      132.0000      378183.60      323421.70      0.1042807
      135.0000      371885.10      323421.70      0.0955025
      138.0000      374222.20      323421.70      0.1062029
      141.0000      365795.30      323421.70      0.0983568
      144.0000      372928.00      323421.70      0.1077644
      147.0000      373303.00      323421.70      0.1074027
      150.0000      362146.70      323421.70      0.0867463
      153.0000      363477.70      323421.70      0.0861988
      156.0000      343539.40      323421.70      0.0598801
      159.0000      332445.30      323421.70      0.0219544
      162.0000      323002.10      323421.70      0.0070307
      165.0000      326575.20      323421.70      0.0200451
      168.0000      324965.90      323421.70      0.0046703
      171.0000      306628.40      323421.70      -0.0352993
      174.0000      298655.70      323421.70      -0.0546914
      177.0000      292264.00      323421.70      -0.0845630
      180.0000      297087.20      323421.70      0.0112848
      183.0000      297385.30      323421.70      0.0294894
      186.0000      293896.00      323421.70      0.0049596
      189.0000      286017.10      323421.70      -0.0074776
      192.0000      292132.90      323421.70      0.0025115
      195.0000      282371.20      323421.70      -0.0134106
      198.0000      285429.00      323421.70      0.0192790
      201.0000      270803.80      323421.70      -0.0064603
      204.0000      267268.40      323421.70      -0.0143126
      207.0000      252389.90      323421.70      -0.0579351
      210.0000      261774.40      323421.70      -0.0454368
      213.0000      247290.50      323421.70      -0.0821814
      216.0000      246947.20      323421.70      -0.0599859
      219.0000      248992.80      323421.70      -0.0349253
      222.0000      256564.60      323421.70      0.0073402
      225.0000      263051.70      323421.70      0.0321163
      228.0000      264700.50      323421.70      0.0230623
      231.0000      266900.40      323421.70      0.0179924
      234.0000      265108.40      323421.70      0.0156470
      237.0000      257389.40      323421.70      -0.0021652
      240.0000      260167.70      323421.70      0.0106130
      243.0000      242075.80      323421.70      -0.0349143
      246.0000      235398.90      323421.70      -0.0943466
      249.0000      237123.90      323421.70      -0.1036619
      252.0000      234538.10      323421.70      -0.1029797
      255.0000      237346.20      323421.70      -0.0904873
      258.0000      242705.10      323421.70      -0.0728234
      261.0000      237483.00      323421.70      -0.0835053
      264.0000      253357.00      323421.70      -0.0313060
      267.0000      243304.70      323421.70      -0.0714446
      270.0000      243726.70      323421.70      -0.0745423
      273.0000      253350.10      323421.70      -0.0469689
      276.0000      253379.50      323421.70      -0.0528980
      279.0000      259448.50      323421.70      -0.0449785
      282.0000      276614.00      323421.70      -0.0044500
      285.0000      267283.10      323421.70      -0.0302146
      288.0000      269919.40      323421.70      -0.0255611
      291.0000      279842.40      323421.70      -0.0088305
      294.0000      282206.10      323421.70      0.0142458
      297.0000      287923.10      323421.70      0.0302271
      300.0000      305502.20      323421.70      0.0527451
      303.0000      308848.00      323421.70      0.0537180
      306.0000      320082.30      323421.70      0.0962046
      309.0000      329607.40      323421.70      0.1094032
      312.0000      331302.70      323421.70      0.1042807
      315.0000      334010.30      323421.70      0.0955025
      318.0000      341088.90      323421.70      0.1062029
      321.0000      346895.70      323421.70      0.0983568
      324.0000      349097.20      323421.70      0.1077644
      327.0000      351639.80      323421.70      0.1074027
      330.0000      352572.90      323421.70      0.0867463
      333.0000      354289.40      323421.70      0.0861988
      336.0000      361174.10      323421.70      0.0598801
      339.0000      350753.30      323421.70      0.0219544
      342.0000      354740.70      323421.70      0.0070307
      345.0000      364262.20      323421.70      0.0200451
      348.0000      359098.90      323421.70      0.0046703
      351.0000      355744.70      323421.70      -0.0352994
      354.0000      355363.70      323421.70      -0.0546914
      357.0000      344605.20      323421.70      -0.0845630

       14     121       19.5900     51.0000      1.00000      0.00000
      0.0000      305638.50      278271.30      0.0328613
      3.0000      307926.20      278271.30      0.0296674
      6.0000      305824.70      278271.30      0.0182622
      9.0000      303038.50      278271.30      0.0074660
      12.0000      315605.90      278271.30      0.0414999
      15.0000      321642.00      278271.30      0.0152300
      18.0000      320772.40      278271.30      0.0132966
      21.0000      317031.90      278271.30      -0.0186258
      24.0000      314060.60      278271.30      -0.0495529
      27.0000      301273.90      278271.30      -0.0746715
      30.0000      302677.40      278271.30      -0.0842871
      33.0000      308794.00      278271.30      -0.0651198
      36.0000      316395.90      278271.30      -0.0662526
      39.0000      340389.50      278271.30      -0.0261265
      42.0000      361803.80      278271.30      0.0326967
      45.0000      356071.90      278271.30      0.0496356
      48.0000      336811.00      278271.30      0.0309284
      51.0000      325196.90      278271.30      -0.0083587
      54.0000      319983.20      278271.30      -0.0327809
      57.0000      345750.10      278271.30      0.0190884
      60.0000      350245.40      278271.30      0.0291497
      63.0000      327903.30      278271.30      -0.0185572
      66.0000      311612.60      278271.30      -0.0728598
      69.0000      299034.60      278271.30      -0.1027596
      72.0000      287110.50      278271.30      -0.1266065
      75.0000      287894.70      278271.30      -0.1217077
      78.0000      291347.20      278271.30      -0.1121917
      81.0000      290750.10      278271.30      -0.1161283
      84.0000      300724.20      278271.30      -0.0939634
      87.0000      300635.50      278271.30      -0.0649413
      90.0000      299503.60      278271.30      -0.0575735
      93.0000      302893.00      278271.30      -0.0342653
      96.0000      298368.00      278271.30      -0.0320325
      99.0000      305427.90      278271.30      -0.0187936
      102.0000      301440.50      278271.30      -0.0161995
      105.0000      306464.80      278271.30      0.0024708
      108.0000      308563.30      278271.30      -0.0135571
      111.0000      299996.50      278271.30      -0.0256057
      114.0000      300942.50      278271.30      -0.0176858
      117.0000      298967.90      278271.30      -0.0221674
      120.0000      290923.70      278271.30      -0.0187134
      123.0000      289265.00      278271.30      -0.0254652
      126.0000      317457.70      278271.30      0.0655211
      129.0000      323214.10      278271.30      0.1102066
      132.0000      345103.70      278271.30      0.1663441
      135.0000      335050.30      278271.30      0.1612770
      138.0000      327689.90      278271.30      0.1266231
      141.0000      324547.90      278271.30      0.1291898
      144.0000      325676.70      278271.30      0.1475104
      147.0000      316987.10      278271.30      0.1265599
      150.0000      326669.90      278271.30      0.1468572
      153.0000      319150.10      278271.30      0.1362029
      156.0000      302457.60      278271.30      0.0945740
      159.0000      273356.00      278271.30      -0.0028291
      162.0000      269154.50      278271.30      -0.0213846
      165.0000      259479.40      278271.30      -0.0428453
      168.0000      260123.50      278271.30      -0.0385738
      171.0000      258400.90      278271.30      -0.0495422
      174.0000      265594.70      278271.30      -0.0501485
      177.0000      266485.60      278271.30      -0.0386221
      180.0000      261076.80      278271.30      0.0328613
      183.0000      258428.70      278271.30      0.0296673
      186.0000      255129.00      278271.30      0.0182621
      189.0000      252458.80      278271.30      0.0074660
      192.0000      259325.20      278271.30      0.0414999
      195.0000      241855.40      278271.30      0.0152300
      198.0000      241618.20      278271.30      0.0132966
      201.0000      229047.60      278271.30      -0.0186258
      204.0000      216391.90      278271.30      -0.0495529
      207.0000      213742.60      278271.30      -0.0746715
      210.0000      207848.90      278271.30      -0.0842871
      213.0000      211932.10      278271.30      -0.0651198
      216.0000      205506.30      278271.30      -0.0662526
      219.0000      206496.80      278271.30      -0.0261265
      222.0000      217841.00      278271.30      0.0326967
      225.0000      228916.50      278271.30      0.0496356
      228.0000      233068.60      278271.30      0.0309284
      231.0000      222657.30      278271.30      -0.0083587
      234.0000      214604.40      278271.30      -0.0327809
      237.0000      219594.60      278271.30      0.0190884
      240.0000      220388.20      278271.30      0.0291497
      243.0000      213715.70      278271.30      -0.0185572
      246.0000      200117.40      278271.30      -0.0728599
      249.0000      194909.20      278271.30      -0.1027596
      252.0000      192018.30      278271.30      -0.1266065
      255.0000      193310.10      278271.30      -0.1217077
      258.0000      194890.10      278271.30      -0.1121917
      261.0000      193328.10      278271.30      -0.1161283
      264.0000      196166.00      278271.30      -0.0939634
      267.0000      209103.70      278271.30      -0.0649413
      270.0000      213237.60      278271.30      -0.0575735
      273.0000      221503.20      278271.30      -0.0342653
      276.0000      226029.00      278271.30      -0.0320325
      279.0000      227390.90      278271.30      -0.0187936
      282.0000      232018.80      278271.30      -0.0161996
      285.0000      237620.40      278271.30      0.0024708
      288.0000      229325.30      278271.30      -0.0135571
      291.0000      231016.30      278271.30      -0.0256057
      294.0000      235046.20      278271.30      -0.0176859
      297.0000      235566.30      278271.30      -0.0221675
      300.0000      245022.60      278271.30      -0.0187134
      303.0000      244544.20      278271.30      -0.0254652
      306.0000      268126.00      278271.30      0.0655212
      309.0000      287849.30      278271.30      0.1102066
      312.0000      299821.40      278271.30      0.1663441
      315.0000      308630.20      278271.30      0.1612770
      318.0000      299557.60      278271.30      0.1266231
      321.0000      306627.60      278271.30      0.1291898
      324.0000      318612.20      278271.30      0.1475104
      327.0000      318701.50      278271.30      0.1265599
      330.0000      323731.80      278271.30      0.1468572
      333.0000      328913.80      278271.30      0.1362029
      336.0000      325899.60      278271.30      0.0945740
      339.0000      302868.20      278271.30      -0.0028291
      342.0000      299815.20      278271.30      -0.0213847
      345.0000      301420.50      278271.30      -0.0428453
      348.0000      307311.60      278271.30      -0.0385738
      351.0000      306206.20      278271.30      -0.0495422
      354.0000      300295.90      278271.30      -0.0501485
      357.0000      311054.70      278271.30      -0.0386221

       15     121       19.5900     54.0000      1.00000      0.00000
      0.0000      254972.10      243935.40      -0.0020290
      3.0000      270625.20      243935.40      0.0055693
      6.0000      275584.10      243935.40      0.0250025
      9.0000      282267.80      243935.40      0.0411958
      12.0000      287937.40      243935.40      0.0485222
      15.0000      280383.30      243935.40      0.0207689
      18.0000      275827.90      243935.40      0.0004307
      21.0000      257715.50      243935.40      -0.0827440
      24.0000      257510.80      243935.40      -0.0994710
      27.0000      253503.00      243935.40      -0.0903209
      30.0000      267603.70      243935.40      -0.0604290
      33.0000      291458.10      243935.40      0.0037571
      36.0000      272744.40      243935.40      -0.0704994
      39.0000      288225.70      243935.40      -0.0194516
      42.0000      312262.50      243935.40      0.0682845
      45.0000      309337.40      243935.40      0.0648317
      48.0000      304634.80      243935.40      0.0583398
      51.0000      300122.30      243935.40      0.0422466
      54.0000      297169.70      243935.40      0.0319572
      57.0000      308974.00      243935.40      0.0597972
      60.0000      309377.00      243935.40      0.0570024
      63.0000      293723.60      243935.40      -0.0002031
      66.0000      265820.20      243935.40      -0.0809962
      69.0000      268937.80      243935.40      -0.0796724
      72.0000      265828.20      243935.40      -0.0677868
      75.0000      247559.50      243935.40      -0.1108767
      78.0000      234719.50      243935.40      -0.1340120
      81.0000      237286.00      243935.40      -0.1383308
      84.0000      248357.20      243935.40      -0.1056845
      87.0000      263182.30      243935.40      -0.0480186
      90.0000      263787.00      243935.40      -0.0369556
      93.0000      273811.30      243935.40      0.0101800
      96.0000      264912.50      243935.40      -0.0115763
      99.0000      265734.30      243935.40      -0.0184696
      102.0000      278458.20      243935.40      0.0029551
      105.0000      271495.30      243935.40      0.0018461
      108.0000      276881.40      243935.40      0.0223583
      111.0000      260354.30      243935.40      -0.0291031
      114.0000      260354.30      243935.40      -0.0368583
      117.0000      247206.50      243935.40      -0.0575528
      120.0000      257549.80      243935.40      -0.0341151
      123.0000      270311.80      243935.40      -0.0041388
      126.0000      275234.20      243935.40      0.0486946
      129.0000      288455.80      243935.40      0.1158285
      132.0000      287180.00      243935.40      0.1376815
      135.0000      289376.00      243935.40      0.1370210
      138.0000      283965.80      243935.40      0.1118472
      141.0000      285238.10      243935.40      0.1171998
      144.0000      281888.40      243935.40      0.1045452
      147.0000      278858.70      243935.40      0.1121648
      150.0000      273032.00      243935.40      0.1125907
      153.0000      271841.70      243935.40      0.1185950
      156.0000      254590.90      243935.40      0.0648361
      159.0000      245991.10      243935.40      -0.0085404
      162.0000      235436.90      243935.40      -0.0516152
      165.0000      217880.60      243935.40      -0.0943836
      168.0000      216828.20      243935.40      -0.0878754
      171.0000      214864.90      243935.40      -0.0844259
      174.0000      230625.60      243935.40      -0.0128422
      177.0000      235308.90      243935.40      -0.0077221
      180.0000      232315.50      243935.40      -0.0020290
      183.0000      222756.80      243935.40      0.0055693
      186.0000      227641.70      243935.40      0.0250025
      189.0000      229493.50      243935.40      0.0411958
      192.0000      228163.60      243935.40      0.0485222
      195.0000      222007.90      243935.40      0.0207689
      198.0000      216585.50      243935.40      0.0004307
      201.0000      194569.30      243935.40      -0.0827440
      204.0000      187268.60      243935.40      -0.0994710
      207.0000      193855.80      243935.40      -0.0903209
      210.0000      195408.80      243935.40      -0.0604290
      213.0000      204081.80      243935.40      0.0037571
      216.0000      186377.90      243935.40      -0.0704994
      219.0000      195683.70      243935.40      -0.0194516
      222.0000      213812.60      243935.40      0.0682845
      225.0000      213812.60      243935.40      0.0648317
      228.0000      213812.60      243935.40      0.0583398
      231.0000      209751.80      243935.40      0.0422466
      234.0000      206955.90      243935.40      0.0319572
      237.0000      209129.40      243935.40      0.0597972
      240.0000      207009.80      243935.40      0.0570024
      243.0000      194385.80      243935.40      -0.0002032
      246.0000      181031.80      243935.40      -0.0809962
      249.0000      178812.20      243935.40      -0.0796724
      252.0000      185227.30      243935.40      -0.0677868
      255.0000      180421.40      243935.40      -0.1108767
      258.0000      179853.20      243935.40      -0.1340120
      261.0000      175963.10      243935.40      -0.1383308
      264.0000      180836.90      243935.40      -0.1056845
      267.0000      193075.10      243935.40      -0.0480186
      270.0000      196880.40      243935.40      -0.0369557
      273.0000      208478.70      243935.40      0.0101799
      276.0000      206144.60      243935.40      -0.0115763
      279.0000      202777.60      243935.40      -0.0184696
      282.0000      202130.90      243935.40      0.0029551
      285.0000      207075.90      243935.40      0.0018460
      288.0000      211721.80      243935.40      0.0223583
      291.0000      203416.20      243935.40      -0.0291031
      294.0000      200601.00      243935.40      -0.0368584
      297.0000      202818.10      243935.40      -0.0575528
      300.0000      205142.40      243935.40      -0.0341151
      303.0000      208312.90      243935.40      -0.0041387
      306.0000      228067.20      243935.40      0.0486946
      309.0000      247521.20      243935.40      0.1158286
      312.0000      259695.80      243935.40      0.1376815
      315.0000      258963.40      243935.40      0.1370209
      318.0000      253878.50      243935.40      0.1118472
      321.0000      256837.60      243935.40      0.1171997
      324.0000      255778.30      243935.40      0.1045452
      327.0000      264225.10      243935.40      0.1121648
      330.0000      272296.60      243935.40      0.1125907
      333.0000      278820.00      243935.40      0.1185950
      336.0000      272193.70      243935.40      0.0648361
      339.0000      246317.80      243935.40      -0.0085404
      342.0000      237679.90      243935.40      -0.0516152
      345.0000      236984.10      243935.40      -0.0943836
      348.0000      244240.20      243935.40      -0.0878754
      351.0000      251193.90      243935.40      -0.0844259
      354.0000      275248.20      243935.40      -0.0128422
      357.0000      275600.40      243935.40      -0.0077221

       16     121       19.5900     57.0000      1.00000      0.00000
      0.0000      214141.10      198026.70      0.0125807
      3.0000      210042.60      198026.70      -0.0021737
      6.0000      218696.70      198026.70      0.0065300
      9.0000      218696.70      198026.70      0.0311379
      12.0000      232714.90      198026.70      0.0526327
      15.0000      225658.10      198026.70      0.0167518
      18.0000      217218.70      198026.70      -0.0271420
      21.0000      204418.90      198026.70      -0.0666197
      24.0000      200058.30      198026.70      -0.1033073
      27.0000      212330.60      198026.70      -0.0610010
      30.0000      230460.60      198026.70      -0.0086153
      33.0000      230617.00      198026.70      -0.0174185
      36.0000      230117.30      198026.70      -0.0170544
      39.0000      242828.60      198026.70      -0.0002692
      42.0000      245898.30      198026.70      0.0392600
      45.0000      244151.00      198026.70      0.0486456
      48.0000      252202.20      198026.70      0.0595865
      51.0000      246844.00      198026.70      0.0701882
      54.0000      247797.00      198026.70      0.0666390
      57.0000      241397.40      198026.70      0.0291225
      60.0000      240934.40      198026.70      0.0221587
      63.0000      231597.20      198026.70      0.0045475
      66.0000      220098.20      198026.70      -0.0357403
      69.0000      221087.90      198026.70      -0.0664140
      72.0000      223610.30      198026.70      -0.0445358
      75.0000      213241.20      198026.70      -0.0766333
      78.0000      195500.70      198026.70      -0.1226326
      81.0000      195897.40      198026.70      -0.1494862
      84.0000      205582.10      198026.70      -0.0997379
      87.0000      210040.00      198026.70      -0.0761624
      90.0000      219834.60      198026.70      -0.0484889
      93.0000      233844.30      198026.70      -0.0051641
      96.0000      221959.20      198026.70      -0.0190104
      99.0000      214212.70      198026.70      -0.0573671
      102.0000      215934.40      198026.70      -0.0520602
      105.0000      220395.00      198026.70      -0.0390135
      108.0000      215176.30      198026.70      -0.0393013
      111.0000      200507.60      198026.70      -0.0947369
      114.0000      205173.00      198026.70      -0.0936206
      117.0000      197521.50      198026.70      -0.1255618
      120.0000      210180.90      198026.70      -0.0680449
      123.0000      210572.20      198026.70      -0.0376054
      126.0000      228119.00      198026.70      0.0302573
      129.0000      237677.60      198026.70      0.0835241
      132.0000      253051.00      198026.70      0.1563321
      135.0000      260358.30      198026.70      0.1897621
      138.0000      252737.60      198026.70      0.1766195
      141.0000      248869.00      198026.70      0.1773958
      144.0000      245845.70      198026.70      0.1864109
      147.0000      236126.00      198026.70      0.1738034
      150.0000      234485.20      198026.70      0.1696583
      153.0000      228795.90      198026.70      0.1505894
      156.0000      216100.30      198026.70      0.0740927
      159.0000      196693.60      198026.70      -0.0080106
      162.0000      192680.20      198026.70      -0.0303905
      165.0000      186391.60      198026.70      -0.0730640
      168.0000      172660.10      198026.70      -0.1301117
      171.0000      170358.70      198026.70      -0.1031064
      174.0000      182369.20      198026.70      -0.0408985
      177.0000      181864.80      198026.70      -0.0201626
      180.0000      181469.70      198026.70      0.0125807
      183.0000      180712.40      198026.70      -0.0021737
      186.0000      177192.60      198026.70      0.0065300
      189.0000      186709.20      198026.70      0.0311379
      192.0000      183196.70      198026.70      0.0526327
      195.0000      176593.10      198026.70      0.0167518
      198.0000      168124.40      198026.70      -0.0271420
      201.0000      164479.60      198026.70      -0.0666197
      204.0000      155094.40      198026.70      -0.1033073
      207.0000      160112.70      198026.70      -0.0610010
      210.0000      164134.30      198026.70      -0.0086153
      213.0000      160816.00      198026.70      -0.0174185
      216.0000      161009.70      198026.70      -0.0170544
      219.0000      157085.80      198026.70      -0.0002691
      222.0000      167581.20      198026.70      0.0392600
      225.0000      171434.00      198026.70      0.0486456
      228.0000      168862.60      198026.70      0.0595865
      231.0000      175503.40      198026.70      0.0701882
      234.0000      173142.20      198026.70      0.0666390
      237.0000      164934.00      198026.70      0.0291225
      240.0000      162505.60      198026.70      0.0221587
      243.0000      162738.10      198026.70      0.0045475
      246.0000      157248.00      198026.70      -0.0357404
      249.0000      146416.30      198026.70      -0.0664140
      252.0000      151249.10      198026.70      -0.0445358
      255.0000      147751.60      198026.70      -0.0766332
      258.0000      144923.80      198026.70      -0.1226326
      261.0000      135918.30      198026.70      -0.1494862
      264.0000      144869.00      198026.70      -0.0997379
      267.0000      149139.60      198026.70      -0.0761624
      270.0000      151086.00      198026.70      -0.0484889
      273.0000      155120.50      198026.70      -0.0051641
      276.0000      158994.70      198026.70      -0.0190105
      279.0000      152210.40      198026.70      -0.0573672
      282.0000      152851.20      198026.70      -0.0520603
      285.0000      154095.50      198026.70      -0.0390135
      288.0000      158106.00      198026.70      -0.0393013
      291.0000      151032.50      198026.70      -0.0947370
      294.0000      148347.30      198026.70      -0.0936206
      297.0000      143910.80      198026.70      -0.1255618
      300.0000      154209.90      198026.70      -0.0680449
      303.0000      165068.30      198026.70      -0.0376054
      306.0000      175415.10      198026.70      0.0302573
      309.0000      187319.10      198026.70      0.0835241
      312.0000      201589.40      198026.70      0.1563322
      315.0000      208738.20      198026.70      0.1897621
      318.0000      212022.40      198026.70      0.1766194
      321.0000      217400.50      198026.70      0.1773958
      324.0000      225422.90      198026.70      0.1864109
      327.0000      231777.30      198026.70      0.1738034
      330.0000      233985.00      198026.70      0.1696583
      333.0000      234373.80      198026.70      0.1505894
      336.0000      218495.90      198026.70      0.0740927
      339.0000      207028.70      198026.70      -0.0080106
      342.0000      204167.40      198026.70      -0.0303905
      345.0000      194942.20      198026.70      -0.0730640
      348.0000      187688.00      198026.70      -0.1301117
      351.0000      205068.70      198026.70      -0.1031064
      354.0000      221934.50      198026.70      -0.0408985
      357.0000      235474.10      198026.70      -0.0201626

       17     121       19.5900     60.0000      1.00000      0.00000
      0.0000      174894.80      168034.20      -0.0321006
      3.0000      169775.50      168034.20      -0.0524938
      6.0000      182738.90      168034.20      0.0075970
      9.0000      191045.80      168034.20      0.0263512
      12.0000      192663.30      168034.20      0.0147908
      15.0000      181446.20      168034.20      -0.0185727
      18.0000      175264.70      168034.20      -0.0363213
      21.0000      172077.20      168034.20      -0.0678569
      24.0000      174165.20      168034.20      -0.0385778
      27.0000      169230.90      168034.20      -0.0693916
      30.0000      194241.80      168034.20      0.0197237
      33.0000      194898.00      168034.20      0.0409977
      36.0000      190050.70      168034.20      0.0036383
      39.0000      193980.50      168034.20      0.0071919
      42.0000      199177.70      168034.20      0.0263110
      45.0000      200408.50      168034.20      0.0600144
      48.0000      201942.60      168034.20      0.0514098
      51.0000      198781.30      168034.20      0.0374129
      54.0000      199879.20      168034.20      0.0550058
      57.0000      197725.20      168034.20      0.0334272
      60.0000      199826.70      168034.20      0.0302549
      63.0000      190437.60      168034.20      -0.0066413
      66.0000      179240.20      168034.20      -0.0441399
      69.0000      182713.50      168034.20      -0.0413540
      72.0000      187247.90      168034.20      -0.0014758
      75.0000      178231.60      168034.20      -0.0584442
      78.0000      178231.60      168034.20      -0.0639379
      81.0000      165311.40      168034.20      -0.1083267
      84.0000      160972.00      168034.20      -0.0938097
      87.0000      167172.50      168034.20      -0.0811334
      90.0000      170734.50      168034.20      -0.0518492
      93.0000      181888.10      168034.20      -0.0162718
      96.0000      183190.80      168034.20      -0.0107569
      99.0000      171480.50      168034.20      -0.0428190
      102.0000      172119.90      168034.20      -0.0753734
      105.0000      169809.30      168034.20      -0.0776432
      108.0000      173846.80      168034.20      -0.0687861
      111.0000      164761.10      168034.20      -0.0964372
      114.0000      166373.10      168034.20      -0.0938184
      117.0000      165120.80      168034.20      -0.0862169
      120.0000      171075.20      168034.20      -0.0684476
      123.0000      177542.40      168034.20      -0.0497882
      126.0000      177316.50      168034.20      -0.0174610
      129.0000      182797.90      168034.20      0.0495423
      132.0000      200084.50      168034.20      0.1507747
      135.0000      207581.20      168034.20      0.2263885
      138.0000      206950.00      168034.20      0.1908028
      141.0000      215586.40      168034.20      0.2377329
      144.0000      206106.70      168034.20      0.2061822
      147.0000      211692.10      168034.20      0.2234358
      150.0000      203584.00      168034.20      0.1963832
      153.0000      196525.00      168034.20      0.1407529
      156.0000      174945.80      168034.20      0.0218668
      159.0000      168315.70      168034.20      -0.0252286
      162.0000      168315.70      168034.20      -0.0335654
      165.0000      161248.30      168034.20      -0.0693620
      168.0000      150219.40      168034.20      -0.1124667
      171.0000      149702.70      168034.20      -0.1234142
      174.0000      151121.90      168034.20      -0.0778431
      177.0000      153846.20      168034.20      -0.0552440
      180.0000      152603.20      168034.20      -0.0321006
      183.0000      151023.30      168034.20      -0.0524938
      186.0000      158889.90      168034.20      0.0075970
      189.0000      157710.30      168034.20      0.0263512
      192.0000      152801.10      168034.20      0.0147908
      195.0000      152096.20      168034.20      -0.0185727
      198.0000      151817.70      168034.20      -0.0363213
      201.0000      144612.70      168034.20      -0.0678569
      204.0000      151817.70      168034.20      -0.0385778
      207.0000      146233.60      168034.20      -0.0693916
      210.0000      152747.10      168034.20      0.0197237
      213.0000      158489.30      168034.20      0.0409978
      216.0000      150789.60      168034.20      0.0036383
      219.0000      148408.40      168034.20      0.0071919
      222.0000      149707.50      168034.20      0.0263110
      225.0000      158531.80      168034.20      0.0600144
      228.0000      154367.20      168034.20      0.0514098
      231.0000      152321.20      168034.20      0.0374129
      234.0000      156312.20      168034.20      0.0550058
      237.0000      151207.20      168034.20      0.0334272
      240.0000      148234.70      168034.20      0.0302549
      243.0000      144304.90      168034.20      -0.0066413
      246.0000      141634.80      168034.20      -0.0441399
      249.0000      139391.80      168034.20      -0.0413540
      252.0000      147227.60      168034.20      -0.0014758
      255.0000      137202.70      168034.20      -0.0584442
      258.0000      135280.70      168034.20      -0.0639379
      261.0000      132084.10      168034.20      -0.1083266
      264.0000      139492.00      168034.20      -0.0938097
      267.0000      138110.00      168034.20      -0.0811334
      270.0000      143689.30      168034.20      -0.0518492
      273.0000      145126.60      168034.20      -0.0162718
      276.0000      145536.80      168034.20      -0.0107569
      279.0000      145299.30      168034.20      -0.0428190
      282.0000      135061.60      168034.20      -0.0753734
      285.0000      136178.80      168034.20      -0.0776432
      288.0000      135481.10      168034.20      -0.0687861
      291.0000      134667.90      168034.20      -0.0964372
      294.0000      134157.40      168034.20      -0.0938184
      297.0000      137570.30      168034.20      -0.0862170
      300.0000      138056.30      168034.20      -0.0684476
      303.0000      138374.50      168034.20      -0.0497882
      306.0000      148662.90      168034.20      -0.0174610
      309.0000      164866.60      168034.20      0.0495423
      312.0000      181522.40      168034.20      0.1507747
      315.0000      199054.80      168034.20      0.2263886
      318.0000      189043.90      168034.20      0.1908028
      321.0000      196735.40      168034.20      0.2377328
      324.0000      196163.70      168034.20      0.2061822
      327.0000      197331.10      168034.20      0.2234358
      330.0000      197136.10      168034.20      0.1963832
      333.0000      186564.40      168034.20      0.1407529
      336.0000      169087.60      168034.20      0.0218668
      339.0000      160758.80      168034.20      -0.0252286
      342.0000      158842.40      168034.20      -0.0335654
      345.0000      154766.00      168034.20      -0.0693620
      348.0000      152354.20      168034.20      -0.1124667
      351.0000      150100.60      168034.20      -0.1234142
      354.0000      166112.60      168034.20      -0.0778431
      357.0000      172689.50      168034.20      -0.0552439

       18     121       19.5900     63.0000      1.00000      0.00000
      0.0000      147353.10      138973.90      -0.0438321
      3.0000      146881.20      138973.90      -0.0381022
      6.0000      150521.00      138973.90      -0.0251807
      9.0000      160108.30      138973.90      0.0317168
      12.0000      156641.20      138973.90      0.0195577
      15.0000      155821.00      138973.90      0.0060758
      18.0000      146746.60      138973.90      -0.0379513
      21.0000      147674.50      138973.90      0.2160662
      24.0000      149934.60      138973.90      -0.0304792
      27.0000      153259.60      138973.90      -0.0345101
      30.0000      158837.10      138973.90      0.0053698
      33.0000      157954.60      138973.90      0.0128866
      36.0000      157779.50      138973.90      0.0027231
      39.0000      153911.70      138973.90      -0.0153057
      42.0000      159889.90      138973.90      0.0299823
      45.0000      161358.70      138973.90      0.0501658
      48.0000      162601.40      138973.90      0.0419579
      51.0000      161509.10      138973.90      0.0436572
      54.0000      166911.50      138973.90      0.0524548
      57.0000      162502.10      138973.90      0.0511581
      60.0000      154843.50      138973.90      0.0275980
      63.0000      150190.40      138973.90      -0.0146308
      66.0000      146772.10      138973.90      -0.0449507
      69.0000      151156.10      138973.90      -0.0373855
      72.0000      155443.20      138973.90      0.0010711
      75.0000      138931.20      138973.90      -0.0599975
      78.0000      135140.50      138973.90      -0.1064474
      81.0000      138404.40      138973.90      -0.0909578
      84.0000      132178.40      138973.90      -0.0863103
      87.0000      141649.30      138973.90      -0.0699080
      90.0000      145208.00      138973.90      -0.0378219
      93.0000      149830.90      138973.90      -0.0018459
      96.0000      143325.50      138973.90      -0.0362684
      99.0000      136331.90      138973.90      -0.0651125
      102.0000      137759.60      138973.90      -0.0966821
      105.0000      139640.00      138973.90      -0.0588525
      108.0000      140594.70      138973.90      -0.0574513
      111.0000      140633.50      138973.90      -0.0566954
      114.0000      151402.00      138973.90      -0.0191241
      117.0000      138141.30      138973.90      -0.0699598
      120.0000      141030.30      138973.90      -0.0269547
      123.0000      141052.60      138973.90      -0.0304827
      126.0000      139167.00      138973.90      -0.0307503
      129.0000      138601.70      138973.90      -0.0151648
      132.0000      147649.50      138973.90      0.0661757
      135.0000      143405.30      138973.90      0.0800814
      138.0000      166533.00      138973.90      0.2073589
      141.0000      164661.40      138973.90      0.2144450
      144.0000      164252.90      138973.90      0.1924555
      147.0000      160070.20      138973.90      0.1707377
      150.0000      147034.70      138973.90      0.1103468
      153.0000      140996.10      138973.90      0.0316829
      156.0000      135720.60      138973.90      -0.0172043
      159.0000      133225.10      138973.90      -0.0381040
      162.0000      137775.20      138973.90      -0.0310570
      165.0000      132356.40      138973.90      -0.0466025
      168.0000      128608.90      138973.90      -0.0837000
      171.0000      132092.00      138973.90      -0.0477498
      174.0000      133380.90      138973.90      -0.0271281
      177.0000      129654.20      138973.90      -0.0392746
      180.0000      124741.00      138973.90      -0.0438322
      183.0000      126533.70      138973.90      -0.0381021
      186.0000      126613.80      138973.90      -0.0251807
      189.0000      133108.20      138973.90      0.0317168
      192.0000      132667.40      138973.90      0.0195577
      195.0000      129595.00      138973.90      0.0060758
      198.0000      125578.90      138973.90      -0.0379513
      201.0000      190276.60      138973.90      0.2160662
      204.0000      124249.40      138973.90      -0.0304792
      207.0000      120125.30      138973.90      -0.0345101
      210.0000      125397.80      138973.90      0.0053698
      213.0000      127722.60      138973.90      0.0128866
      216.0000      124929.90      138973.90      0.0027231
      219.0000      123195.10      138973.90      -0.0153057
      222.0000      129405.20      138973.90      0.0299823
      225.0000      132935.70      138973.90      0.0501658
      228.0000      129463.10      138973.90      0.0419579
      231.0000      130416.00      138973.90      0.0436572
      234.0000      127824.30      138973.90      0.0524548
      237.0000      130745.90      138973.90      0.0511581
      240.0000      130753.90      138973.90      0.0275979
      243.0000      123642.40      138973.90      -0.0146308
      246.0000      118532.90      138973.90      -0.0449507
      249.0000      116510.70      138973.90      -0.0373854
      252.0000      122291.70      138973.90      0.0010711
      255.0000      120351.90      138973.90      -0.0599974
      258.0000      111613.50      138973.90      -0.1064474
      261.0000      112540.50      138973.90      -0.0909578
      264.0000      118659.70      138973.90      -0.0863103
      267.0000      114656.40      138973.90      -0.0699080
      270.0000      119515.40      138973.90      -0.0378219
      273.0000      124469.10      138973.90      -0.0018458
      276.0000      121145.10      138973.90      -0.0362684
      279.0000      119688.10      138973.90      -0.0651125
      282.0000      110381.30      138973.90      -0.0966821
      285.0000      118245.90      138973.90      -0.0588524
      288.0000      117706.70      138973.90      -0.0574514
      291.0000      117818.10      138973.90      -0.0566954
      294.0000      117938.40      138973.90      -0.0191241
      297.0000      116598.40      138973.90      -0.0699599
      300.0000      125153.00      138973.90      -0.0269547
      303.0000      124305.90      138973.90      -0.0304827
      306.0000      126066.30      138973.90      -0.0307503
      309.0000      130831.60      138973.90      -0.0151648
      312.0000      144102.50      138973.90      0.0661757
      315.0000      152067.40      138973.90      0.0800813
      318.0000      164538.90      138973.90      0.2073589
      321.0000      168670.70      138973.90      0.2144450
      324.0000      163632.30      138973.90      0.1924555
      327.0000      162336.30      138973.90      0.1707376
      330.0000      159248.80      138973.90      0.1103468
      333.0000      144181.10      138973.90      0.0316829
      336.0000      136491.40      138973.90      -0.0172043
      339.0000      133770.00      138973.90      -0.0381040
      342.0000      131646.90      138973.90      -0.0310570
      345.0000      133536.50      138973.90      -0.0466025
      348.0000      127508.30      138973.90      -0.0837000
      351.0000      134931.80      138973.90      -0.0477498
      354.0000      140396.90      138973.90      -0.0271280
      357.0000      141824.60      138973.90      -0.0392746

       19     121       19.5900     66.0000      1.00000      0.00000
      0.0000      119280.60      112409.90      -0.0037698
      3.0000      115563.30      112409.90      -0.0312366
      6.0000      121168.00      112409.90      -0.0040002
      9.0000      122701.50      112409.90      -0.0017224
      12.0000      126144.80      112409.90      0.0304206
      15.0000      129718.40      112409.90      0.0468720
      18.0000      121211.40      112409.90      0.0134107
      21.0000      119094.80      112409.90      -0.0082665
      24.0000      118577.20      112409.90      0.0018167
      27.0000      116384.70      112409.90      -0.0126948
      30.0000      121940.40      112409.90      0.0146204
      33.0000      125251.50      112409.90      0.0493081
      36.0000      120074.80      112409.90      -0.0044414
      39.0000      119207.60      112409.90      -0.0125127
      42.0000      124882.30      112409.90      0.0186917
      45.0000      133402.10      112409.90      0.1144177
      48.0000      140108.30      112409.90      0.1421039
      51.0000      134973.70      112409.90      0.1223864
      54.0000      133910.40      112409.90      0.1027477
      57.0000      136580.40      112409.90      0.1095206
      60.0000      127934.80      112409.90      0.0592008
      63.0000      119037.90      112409.90      -0.0019000
      66.0000      111947.60      112409.90      -0.0588842
      69.0000      113639.10      112409.90      -0.0370230
      72.0000      116178.40      112409.90      -0.0158755
      75.0000      112299.70      112409.90      -0.0584004
      78.0000      105514.60      112409.90      -0.0950884
      81.0000      105792.60      112409.90      -0.0997996
      84.0000      104561.90      112409.90      -0.0863296
      87.0000      115759.70      112409.90      -0.0292287
      90.0000      115059.90      112409.90      -0.0353138
      93.0000      112369.80      112409.90      -0.0379962
      96.0000      110751.70      112409.90      -0.0701187
      99.0000      109286.50      112409.90      -0.0785098
      102.0000      108571.00      112409.90      -0.0844154
      105.0000      109752.80      112409.90      -0.0857015
      108.0000      113947.00      112409.90      -0.0460017
      111.0000      116520.60      112409.90      -0.0041548
      114.0000      113368.30      112409.90      -0.0469400
      117.0000      111467.10      112409.90      -0.0922871
      120.0000      114960.80      112409.90      -0.0161831
      123.0000      118403.00      112409.90      0.0046036
      126.0000      110134.60      112409.90      -0.0362615
      129.0000      108958.70      112409.90      -0.0623207
      132.0000      107974.80      112409.90      -0.0398738
      135.0000      117146.30      112409.90      0.0221026
      138.0000      127294.70      112409.90      0.1393807
      141.0000      129597.30      112409.90      0.1671877
      144.0000      126779.30      112409.90      0.1648958
      147.0000      119168.30      112409.90      0.1048246
      150.0000      110809.40      112409.90      -0.0269755
      153.0000      103578.40      112409.90      -0.0539468
      156.0000      104104.50      112409.90      -0.0438839
      159.0000      106984.80      112409.90      -0.0331881
      162.0000      109453.80      112409.90      0.0689265
      165.0000      105470.20      112409.90      -0.0330618
      168.0000      106142.80      112409.90      -0.0513677
      171.0000      107598.90      112409.90      0.0620964
      174.0000      108672.30      112409.90      -0.0049566
      177.0000      107755.00      112409.90      -0.0145815
      180.0000      107755.00      112409.90      -0.0037697
      183.0000      105024.60      112409.90      -0.0312366
      186.0000      105760.70      112409.90      -0.0040002
      189.0000      104746.10      112409.90      -0.0017224
      192.0000      108381.20      112409.90      0.0304206
      195.0000      108570.30      112409.90      0.0468720
      198.0000      108658.40      112409.90      0.0134107
      201.0000      105714.80      112409.90      -0.0082665
      204.0000      108049.80      112409.90      0.0018167
      207.0000      106665.60      112409.90      -0.0126949
      210.0000      107392.40      112409.90      0.0146204
      213.0000      111551.30      112409.90      0.0493081
      216.0000      104553.40      112409.90      -0.0044414
      219.0000      103386.50      112409.90      -0.0125127
      222.0000      104801.70      112409.90      0.0186917
      225.0000      117117.40      112409.90      0.1144177
      228.0000      116896.20      112409.90      0.1421039
      231.0000      116927.20      112409.90      0.1223864
      234.0000      113541.20      112409.90      0.1027477
      237.0000      112436.10      112409.90      0.1095206
      240.0000      109198.10      112409.90      0.0592008
      243.0000      103991.80      112409.90      -0.0019000
      246.0000      98130.00      112409.90      -0.0588842
      249.0000      101016.60      112409.90      -0.0370230
      252.0000      103037.80      112409.90      -0.0158755
      255.0000      97463.80      112409.90      -0.0584004
      258.0000      95614.70      112409.90      -0.0950884
      261.0000      94294.50      112409.90      -0.0997996
      264.0000      98050.40      112409.90      -0.0863296
      267.0000      100034.50      112409.90      -0.0292287
      270.0000      99305.30      112409.90      -0.0353138
      273.0000      101052.70      112409.90      -0.0379962
      276.0000      95754.30      112409.90      -0.0701188
      279.0000      95277.10      112409.90      -0.0785098
      282.0000      94671.80      112409.90      -0.0844154
      285.0000      93345.00      112409.90      -0.0857015
      288.0000      97937.60      112409.90      -0.0460017
      291.0000      104497.00      112409.90      -0.0041548
      294.0000      98378.70      112409.90      -0.0469399
      297.0000      90536.80      112409.90      -0.0922871
      300.0000      103692.40      112409.90      -0.0161832
      303.0000      105081.90      112409.90      0.0046036
      306.0000      104262.70      112409.90      -0.0362615
      309.0000      99923.70      112409.90      -0.0623207
      312.0000      106032.50      112409.90      -0.0398738
      315.0000      111024.60      112409.90      0.0221026
      318.0000      127378.20      112409.90      0.1393807
      321.0000      131721.20      112409.90      0.1671877
      324.0000      134530.70      112409.90      0.1648958
      327.0000      129203.70      112409.90      0.1048246
      330.0000      108221.90      112409.90      -0.0269755
      333.0000      110024.10      112409.90      -0.0539468
      336.0000      112339.80      112409.90      -0.0438839
      339.0000      112339.80      112409.90      -0.0331881
      342.0000      134458.70      112409.90      0.0689265
      345.0000      115267.80      112409.90      -0.0330618
      348.0000      110791.10      112409.90      -0.0513676
      351.0000      137495.80      112409.90      0.0620964
      354.0000      120726.10      112409.90      -0.0049566
      357.0000      120231.70      112409.90      -0.0145815

       20     121       19.5900     69.0000      1.00000      0.00000
      0.0000      118446.00      88470.40      0.0584592
      3.0000      92673.20      88470.40      -0.0672226
      6.0000      109499.90      88470.40      0.0358012
      9.0000      97904.60      88470.40      -0.0227640
      12.0000      98857.80      88470.40      -0.0035551
      15.0000      101822.70      88470.40      0.0486601
      18.0000      101463.90      88470.40      0.0402256
      21.0000      102023.30      88470.40      0.0577043
      24.0000      100698.80      88470.40      0.0634153
      27.0000      96800.70      88470.40      0.0245403
      30.0000      94083.00      88470.40      0.0272638
      33.0000      94272.00      88470.40      0.0067225
      36.0000      94511.40      88470.40      -0.0084956
      39.0000      91175.60      88470.40      -0.0227961
      42.0000      95702.50      88470.40      0.0068838
      45.0000      100263.40      88470.40      0.0632840
      48.0000      101058.60      88470.40      0.0692388
      51.0000      98191.60      88470.40      0.0632564
      54.0000      99702.30      88470.40      0.0700852
      57.0000      107973.90      88470.40      0.1140059
      60.0000      98898.20      88470.40      0.0475151
      63.0000      91006.20      88470.40      -0.0280788
      66.0000      85546.50      88470.40      -0.0600022
      69.0000      89914.00      88470.40      -0.0288535
      72.0000      87057.40      88470.40      -0.0172611
      75.0000      88038.50      88470.40      -0.0144934
      78.0000      90763.50      88470.40      -0.0054458
      81.0000      91390.00      88470.40      -0.0106884
      84.0000      87635.50      88470.40      -0.0242102
      87.0000      89289.30      88470.40      0.0028345
      90.0000      87270.60      88470.40      0.0038185
      93.0000      84938.20      88470.40      -0.0697393
      96.0000      82167.60      88470.40      -0.0761142
      99.0000      88084.50      88470.40      -0.0658119
      102.0000      85042.90      88470.40      -0.0740828
      105.0000      99690.90      88470.40      0.0306975
      108.0000      89576.20      88470.40      -0.0051432
      111.0000      87063.00      88470.40      -0.0316368
      114.0000      84491.60      88470.40      -0.0584205
      117.0000      86372.20      88470.40      -0.0566379
      120.0000      87278.80      88470.40      -0.0370602
      123.0000      85960.60      88470.40      -0.0268967
      126.0000      83591.30      88470.40      -0.0429728
      129.0000      84589.30      88470.40      -0.0524558
      132.0000      87027.80      88470.40      -0.0339889
      135.0000      84665.80      88470.40      -0.0238559
      138.0000      91654.70      88470.40      0.0655560
      141.0000      92692.20      88470.40      0.1021584
      144.0000      90744.00      88470.40      0.0736619
      147.0000      86797.40      88470.40      0.0367635
      150.0000      79168.80      88470.40      -0.0558448
      153.0000      78132.30      88470.40      -0.0619756
      156.0000      80676.00      88470.40      -0.0471449
      159.0000      80676.00      88470.40      -0.0155424
      162.0000      83169.30      88470.40      -0.0214638
      165.0000      80038.50      88470.40      -0.0254563
      168.0000      79324.60      88470.40      -0.0266882
      171.0000      81835.30      88470.40      -0.0031857
      174.0000      85236.40      88470.40      0.0342007
      177.0000      90058.60      88470.40      0.0806080
      180.0000      82583.20      88470.40      0.0584592
      183.0000      81770.80      88470.40      -0.0672226
      186.0000      84822.90      88470.40      0.0358012
      189.0000      83935.00      88470.40      -0.0227640
      192.0000      85862.10      88470.40      -0.0035551
      195.0000      91667.80      88470.40      0.0486600
      198.0000      90029.40      88470.40      0.0402256
      201.0000      91991.90      88470.40      0.0577043
      204.0000      93574.50      88470.40      0.0634153
      207.0000      89873.80      88470.40      0.0245402
      210.0000      92202.40      88470.40      0.0272638
      213.0000      88158.30      88470.40      0.0067224
      216.0000      84974.90      88470.40      -0.0084956
      219.0000      85057.00      88470.40      -0.0227961
      222.0000      85710.20      88470.40      0.0068839
      225.0000      90795.90      88470.40      0.0632840
      228.0000      90694.50      88470.40      0.0692388
      231.0000      91832.40      88470.40      0.0632564
      234.0000      91266.30      88470.40      0.0700852
      237.0000      90896.20      88470.40      0.1140059
      240.0000      87469.40      88470.40      0.0475151
      243.0000      81520.90      88470.40      -0.0280788
      246.0000      80788.70      88470.40      -0.0600021
      249.0000      81786.50      88470.40      -0.0288535
      252.0000      86075.80      88470.40      -0.0172611
      255.0000      85384.40      88470.40      -0.0144934
      258.0000      84145.30      88470.40      -0.0054458
      261.0000      82427.10      88470.40      -0.0106884
      264.0000      83394.70      88470.40      -0.0242102
      267.0000      86205.00      88470.40      0.0028345
      270.0000      88056.60      88470.40      0.0038185
      273.0000      77586.30      88470.40      -0.0697393
      276.0000      78943.70      88470.40      -0.0761142
      279.0000      74889.30      88470.40      -0.0658119
      282.0000      76209.90      88470.40      -0.0740829
      285.0000      79826.80      88470.40      0.0306975
      288.0000      83281.20      88470.40      -0.0051432
      291.0000      81043.70      88470.40      -0.0316368
      294.0000      78831.20      88470.40      -0.0584205
      297.0000      77179.80      88470.40      -0.0566379
      300.0000      79529.70      88470.40      -0.0370603
      303.0000      82464.40      88470.40      -0.0268967
      306.0000      81950.30      88470.40      -0.0429728
      309.0000      79250.70      88470.40      -0.0524558
      312.0000      79933.20      88470.40      -0.0339889
      315.0000      83973.50      88470.40      -0.0238558
      318.0000      92379.70      88470.40      0.0655560
      321.0000      97634.40      88470.40      0.1021584
      324.0000      94632.40      88470.40      0.0736619
      327.0000      92202.90      88470.40      0.0367635
      330.0000      83836.30      88470.40      -0.0558448
      333.0000      83828.60      88470.40      -0.0619756
      336.0000      83828.60      88470.40      -0.0471449
      339.0000      89374.30      88470.40      -0.0155424
      342.0000      85803.70      88470.40      -0.0214638
      345.0000      88371.00      88470.40      -0.0254563
      348.0000      88944.30      88470.40      -0.0266882
      351.0000      90534.60      88470.40      -0.0031857
      354.0000      93654.20      88470.40      0.0342007
      357.0000      96894.60      88470.40      0.0806080

