      19    2299    0     datakind beginning-row linenumbers
MSCD Version 1.00 Yufeng Chen and Michel A Van Hove
Lawrence Berkeley National Laboratory (LBNL), Berkeley, CA 94720
Copyright (c) Van Hove Group 1997. All rights reserved
--------------------------------------------------------------
angle-resolved photoemission extended fine structure (ARPEFS)
experimental data for Fe 2p3/2 from Fe on STO(100)  excited with hv=1810eV
provided by Pancotti et al. (LNLS in 9, June 2010)
   initial angular momentum (l) = 1
   photon polarization angle (polar, azimuth) = (  30.0,   0.0 ) (deg)
   sample temperature = 300 K
   photoemission angular scan curves
     (curve point theta phi weightc weighte//k intensity chiexp)
      19     2299       1       19     121     2299
       1     121       19.5900     15.0000      1.00000      0.00000
      0.0000      39626.00      34528.60      0.1476293
      3.0000      43510.20      34528.60      0.2601217
      6.0000      45045.70      34528.60      0.3045921
      9.0000      41531.70      34528.60      0.2028213
      12.0000      41133.90      34528.60      0.1913004
      15.0000      43203.90      34528.60      0.2512507
      18.0000      39269.10      34528.60      0.1372929
      21.0000      35804.50      34528.60      0.0369529
      24.0000      33728.00      34528.60      -0.0231857
      27.0000      31731.00      34528.60      -0.0810219
      30.0000      36965.90      34528.60      0.0705888
      33.0000      31463.80      34528.60      -0.0887604
      36.0000      32576.10      34528.60      -0.0565465
      39.0000      33728.30      34528.60      -0.0231771
      42.0000      34622.00      34528.60      0.0027059
      45.0000      35766.30      34528.60      0.0358465
      48.0000      32450.40      34528.60      -0.0601870
      51.0000      29967.70      34528.60      -0.1320898
      54.0000      28686.90      34528.60      -0.1691837
      57.0000      32730.70      34528.60      -0.0520691
      60.0000      26448.80      34528.60      -0.2340025
      63.0000      29173.90      34528.60      -0.1550794
      66.0000      29913.50      34528.60      -0.1336595
      69.0000      26541.50      34528.60      -0.2313177
      72.0000      26598.80      34528.60      -0.2296582
      75.0000      30948.40      34528.60      -0.1036872
      78.0000      28591.90      34528.60      -0.1719350
      81.0000      30413.80      34528.60      -0.1191700
      84.0000      36049.10      34528.60      0.0440368
      87.0000      37767.40      34528.60      0.0938014
      90.0000      34232.00      34528.60      -0.0085891
      93.0000      34695.30      34528.60      0.0048287
      96.0000      34337.00      34528.60      -0.0055482
      99.0000      35281.60      34528.60      0.0218089
      102.0000      35305.10      34528.60      0.0224895
      105.0000      35162.50      34528.60      0.0183596
      108.0000      32588.00      34528.60      -0.0562019
      111.0000      26271.60      34528.60      -0.2391345
      114.0000      28596.90      34528.60      -0.1717902
      117.0000      24242.10      34528.60      -0.2979119
      120.0000      25007.50      34528.60      -0.2757447
      123.0000      30706.70      34528.60      -0.1106872
      126.0000      32224.10      34528.60      -0.0667410
      129.0000      31315.70      34528.60      -0.0930496
      132.0000      31588.70      34528.60      -0.0851431
      135.0000      29331.90      34528.60      -0.1505035
      138.0000      30940.90      34528.60      -0.1039044
      141.0000      32987.00      34528.60      -0.0446462
      144.0000      30751.50      34528.60      -0.1093897
      147.0000      26744.80      34528.60      -0.2254299
      150.0000      37747.60      34528.60      0.0932280
      153.0000      35593.40      34528.60      0.0308391
      156.0000      28533.70      34528.60      -0.1736206
      159.0000      29103.70      34528.60      -0.1571125
      162.0000      37166.10      34528.60      0.0763869
      165.0000      30472.90      34528.60      -0.1174584
      168.0000      31573.20      34528.60      -0.0855920
      171.0000      33418.80      34528.60      -0.0321407
      174.0000      33448.80      34528.60      -0.0312718
      177.0000      37760.60      34528.60      0.0936045
      180.0000      38096.20      34528.60      0.1033240
      183.0000      33577.20      34528.60      -0.0275531
      186.0000      44053.60      34528.60      0.2758594
      189.0000      37969.90      34528.60      0.0996661
      192.0000      37533.60      34528.60      0.0870302
      195.0000      37228.80      34528.60      0.0782028
      198.0000      38662.70      34528.60      0.1197307
      201.0000      39721.10      34528.60      0.1503836
      204.0000      34997.50      34528.60      0.0135809
      207.0000      37336.70      34528.60      0.0813277
      210.0000      34523.40      34528.60      -0.0001498
      213.0000      36079.70      34528.60      0.0449231
      216.0000      39931.30      34528.60      0.1564713
      219.0000      33623.10      34528.60      -0.0262238
      222.0000      38460.70      34528.60      0.1138805
      225.0000      35523.50      34528.60      0.0288147
      228.0000      36469.60      34528.60      0.0562152
      231.0000      38351.60      34528.60      0.1107207
      234.0000      36660.90      34528.60      0.0617555
      237.0000      35484.80      34528.60      0.0276939
      240.0000      32999.00      34528.60      -0.0442987
      243.0000      32577.90      34528.60      -0.0564944
      246.0000      38589.40      34528.60      0.1176078
      249.0000      32639.40      34528.60      -0.0547133
      252.0000      33568.40      34528.60      -0.0278080
      255.0000      32751.40      34528.60      -0.0514696
      258.0000      34361.70      34528.60      -0.0048328
      261.0000      37154.80      34528.60      0.0760596
      264.0000      34910.10      34528.60      0.0110497
      267.0000      41535.80      34528.60      0.2029400
      270.0000      38385.10      34528.60      0.1116910
      273.0000      38028.10      34528.60      0.1013517
      276.0000      39780.00      34528.60      0.1520894
      279.0000      39782.70      34528.60      0.1521676
      282.0000      33404.40      34528.60      -0.0325577
      285.0000      42504.00      34528.60      0.2309806
      288.0000      37331.10      34528.60      0.0811655
      291.0000      39288.90      34528.60      0.1378664
      294.0000      38003.20      34528.60      0.1006306
      297.0000      31844.80      34528.60      -0.0777261
      300.0000      27792.40      34528.60      -0.1950898
      303.0000      35706.50      34528.60      0.0341146
      306.0000      37263.80      34528.60      0.0792164
      309.0000      33645.60      34528.60      -0.0255722
      312.0000      34441.30      34528.60      -0.0025275
      315.0000      32581.50      34528.60      -0.0563901
      318.0000      34703.30      34528.60      0.0050604
      321.0000      32155.60      34528.60      -0.0687248
      324.0000      35585.60      34528.60      0.0306132
      327.0000      32171.70      34528.60      -0.0682586
      330.0000      35188.70      34528.60      0.0191183
      333.0000      36904.20      34528.60      0.0688018
      336.0000      31040.60      34528.60      -0.1010169
      339.0000      30452.50      34528.60      -0.1180492
      342.0000      35821.70      34528.60      0.0374510
      345.0000      30777.30      34528.60      -0.1086425
      348.0000      37468.70      34528.60      0.0851506
      351.0000      36867.70      34528.60      0.0677447
      354.0000      34126.50      34528.60      -0.0116446
      357.0000      41888.30      34528.60      0.2131490
      360.0000      38096.20      34528.60      0.1033240
       2     121       19.5900     18.0000      1.00000      0.00000
      0.0000      49676.20      40845.90      0.2161857
      3.0000      41370.40      40845.90      0.0128409
      6.0000      55563.60      40845.90      0.3603225
      9.0000      46737.50      40845.90      0.1442396
      12.0000      36771.90      40845.90      -0.0997408
      15.0000      51407.10      40845.90      0.2585620
      18.0000      35546.90      40845.90      -0.1297315
      21.0000      53249.30      40845.90      0.3036632
      24.0000      40982.40      40845.90      0.0033418
      27.0000      35974.70      40845.90      -0.1192580
      30.0000      38291.90      40845.90      -0.0625277
      33.0000      29853.60      40845.90      -0.2691164
      36.0000      41551.40      40845.90      0.0172722
      39.0000      32190.80      40845.90      -0.2118965
      42.0000      38688.30      40845.90      -0.0528230
      45.0000      48822.80      40845.90      0.1952925
      48.0000      47774.70      40845.90      0.1696326
      51.0000      24062.00      40845.90      -0.4109079
      54.0000      40357.80      40845.90      -0.0119498
      57.0000      26138.40      40845.90      -0.3600729
      60.0000      30248.00      40845.90      -0.2594606
      63.0000      27603.90      40845.90      -0.3241941
      66.0000      28956.10      40845.90      -0.2910892
      69.0000      29883.10      40845.90      -0.2683942
      72.0000      31762.80      40845.90      -0.2223749
      75.0000      27024.60      40845.90      -0.3383767
      78.0000      28953.00      40845.90      -0.2911651
      81.0000      30674.70      40845.90      -0.2490140
      84.0000      34469.40      40845.90      -0.1561112
      87.0000      39467.90      40845.90      -0.0337366
      90.0000      42049.80      40845.90      0.0294742
      93.0000      31242.90      40845.90      -0.2351032
      96.0000      42083.20      40845.90      0.0302919
      99.0000      39379.70      40845.90      -0.0358959
      102.0000      45433.70      40845.90      0.1123197
      105.0000      33798.00      40845.90      -0.1725486
      108.0000      41866.80      40845.90      0.0249939
      111.0000      29601.10      40845.90      -0.2752982
      114.0000      33955.20      40845.90      -0.1687000
      117.0000      35187.10      40845.90      -0.1385403
      120.0000      31111.40      40845.90      -0.2383226
      123.0000      39718.50      40845.90      -0.0276013
      126.0000      35305.70      40845.90      -0.1356367
      129.0000      30386.30      40845.90      -0.2560747
      132.0000      39886.00      40845.90      -0.0235006
      135.0000      38021.70      40845.90      -0.0691428
      138.0000      39034.50      40845.90      -0.0443472
      141.0000      38583.30      40845.90      -0.0553936
      144.0000      53205.90      40845.90      0.3026007
      147.0000      33799.20      40845.90      -0.1725192
      150.0000      41126.70      40845.90      0.0068746
      153.0000      36942.50      40845.90      -0.0955641
      156.0000      32990.50      40845.90      -0.1923180
      159.0000      32866.30      40845.90      -0.1953587
      162.0000      31356.00      40845.90      -0.2323342
      165.0000      45821.20      40845.90      0.1218065
      168.0000      35376.20      40845.90      -0.1339107
      171.0000      36901.10      40845.90      -0.0965777
      174.0000      45087.70      40845.90      0.1038488
      177.0000      42308.60      40845.90      0.0358102
      180.0000      53860.50      40845.90      0.3186268
      183.0000      57588.90      40845.90      0.4099064
      186.0000      45084.20      40845.90      0.1037631
      189.0000      47192.80      40845.90      0.1553864
      192.0000      55431.00      40845.90      0.3570762
      195.0000      46875.00      40845.90      0.1476060
      198.0000      48178.20      40845.90      0.1795112
      201.0000      43098.00      40845.90      0.0551365
      204.0000      56207.50      40845.90      0.3760867
      207.0000      46713.70      40845.90      0.1436570
      210.0000      44630.70      40845.90      0.0926604
      213.0000      42725.40      40845.90      0.0460144
      216.0000      44392.80      40845.90      0.0868361
      219.0000      45861.90      40845.90      0.1228030
      222.0000      43123.30      40845.90      0.0557559
      225.0000      42439.30      40845.90      0.0390100
      228.0000      43257.60      40845.90      0.0590438
      231.0000      43393.40      40845.90      0.0623685
      234.0000      47410.40      40845.90      0.1607138
      237.0000      45349.10      40845.90      0.1102485
      240.0000      47194.60      40845.90      0.1554305
      243.0000      44825.70      40845.90      0.0974345
      246.0000      38792.90      40845.90      -0.0502621
      249.0000      44074.00      40845.90      0.0790311
      252.0000      37305.60      40845.90      -0.0866746
      255.0000      40676.70      40845.90      -0.0041424
      258.0000      44822.30      40845.90      0.0973512
      261.0000      44249.60      40845.90      0.0833302
      264.0000      44249.60      40845.90      0.0833302
      267.0000      41346.40      40845.90      0.0122533
      270.0000      45297.60      40845.90      0.1089876
      273.0000      45485.20      40845.90      0.1135805
      276.0000      43589.60      40845.90      0.0671719
      279.0000      42674.20      40845.90      0.0447609
      282.0000      45008.90      40845.90      0.1019196
      285.0000      42598.40      40845.90      0.0429051
      288.0000      46581.50      40845.90      0.1404204
      291.0000      43315.10      40845.90      0.0604516
      294.0000      41214.80      40845.90      0.0090315
      297.0000      40636.60      40845.90      -0.0051242
      300.0000      39034.40      40845.90      -0.0443497
      303.0000      40251.00      40845.90      -0.0145645
      306.0000      42573.10      40845.90      0.0422857
      309.0000      43965.30      40845.90      0.0763699
      312.0000      41695.70      40845.90      0.0208050
      315.0000      42731.30      40845.90      0.0461588
      318.0000      44121.90      40845.90      0.0802038
      321.0000      38755.50      40845.90      -0.0511778
      324.0000      41118.30      40845.90      0.0066689
      327.0000      36952.60      40845.90      -0.0953168
      330.0000      39010.60      40845.90      -0.0449323
      333.0000      43312.20      40845.90      0.0603806
      336.0000      38699.70      40845.90      -0.0525439
      339.0000      42227.60      40845.90      0.0338271
      342.0000      41409.70      40845.90      0.0138031
      345.0000      41274.30      40845.90      0.0104882
      348.0000      43615.50      40845.90      0.0678060
      351.0000      41806.50      40845.90      0.0235176
      354.0000      44301.10      40845.90      0.0845911
      357.0000      49416.90      40845.90      0.2098374
      360.0000      53860.50      40845.90      0.3186268
       3     121       19.5900     21.0000      1.00000      0.00000
      0.0000      58166.40      44722.80      0.3005973
      3.0000      53671.70      44722.80      0.2000961
      6.0000      51777.70      44722.80      0.1577463
      9.0000      46664.90      44722.80      0.0434244
      12.0000      38795.60      44722.80      -0.1325327
      15.0000      42499.00      44722.80      -0.0497249
      18.0000      49183.90      44722.80      0.0997491
      21.0000      47633.40      44722.80      0.0650800
      24.0000      39374.30      44722.80      -0.1195930
      27.0000      24965.00      44722.80      -0.4417841
      30.0000      32079.70      44722.80      -0.2826998
      33.0000      33029.40      44722.80      -0.2614646
      36.0000      44651.70      44722.80      -0.0015906
      39.0000      42209.70      44722.80      -0.0561936
      42.0000      36278.20      44722.80      -0.1888216
      45.0000      29935.00      44722.80      -0.3306552
      48.0000      42384.10      44722.80      -0.0522940
      51.0000      40314.00      44722.80      -0.0985813
      54.0000      40314.00      44722.80      -0.0985813
      57.0000      35613.70      44722.80      -0.2036798
      60.0000      39192.20      44722.80      -0.1236647
      63.0000      51438.10      44722.80      0.1501529
      66.0000      26565.60      44722.80      -0.4059947
      69.0000      26565.60      44722.80      -0.4059947
      72.0000      25691.00      44722.80      -0.4255507
      75.0000      29667.60      44722.80      -0.3366342
      78.0000      43024.50      44722.80      -0.0379747
      81.0000      30125.70      44722.80      -0.3263911
      84.0000      36609.60      44722.80      -0.1814115
      87.0000      41662.80      44722.80      -0.0684222
      90.0000      29696.30      44722.80      -0.3359925
      93.0000      60807.30      44722.80      0.3596477
      96.0000      45959.10      44722.80      0.0276428
      99.0000      44259.00      44722.80      -0.0103714
      102.0000      29758.10      44722.80      -0.3346106
      105.0000      46543.80      44722.80      0.0407166
      108.0000      42643.80      44722.80      -0.0464871
      111.0000      37328.00      44722.80      -0.1653481
      114.0000      26225.10      44722.80      -0.4136083
      117.0000      30121.00      44722.80      -0.3264962
      120.0000      29497.30      44722.80      -0.3404421
      123.0000      34748.20      44722.80      -0.2230323
      126.0000      39116.50      44722.80      -0.1253574
      129.0000      34580.50      44722.80      -0.2267821
      132.0000      41596.10      44722.80      -0.0699136
      135.0000      44697.90      44722.80      -0.0005576
      138.0000      41760.10      44722.80      -0.0662466
      141.0000      39785.50      44722.80      -0.1103986
      144.0000      45016.50      44722.80      0.0065663
      147.0000      47877.80      44722.80      0.0705448
      150.0000      40177.20      44722.80      -0.1016402
      153.0000      40177.20      44722.80      -0.1016402
      156.0000      40177.20      44722.80      -0.1016402
      159.0000      36394.00      44722.80      -0.1862323
      162.0000      38007.40      44722.80      -0.1501568
      165.0000      38990.00      44722.80      -0.1281859
      168.0000      40054.60      44722.80      -0.1043815
      171.0000      49037.10      44722.80      0.0964667
      174.0000      49037.10      44722.80      0.0964667
      177.0000      49037.10      44722.80      0.0964667
      180.0000      53747.30      44722.80      0.2017865
      183.0000      52436.00      44722.80      0.1724659
      186.0000      53698.50      44722.80      0.2006953
      189.0000      56436.30      44722.80      0.2619124
      192.0000      49178.00      44722.80      0.0996172
      195.0000      51869.70      44722.80      0.1598034
      198.0000      57734.40      44722.80      0.2909378
      201.0000      45129.20      44722.80      0.0090863
      204.0000      50557.60      44722.80      0.1304650
      207.0000      43024.60      44722.80      -0.0379725
      210.0000      46664.10      44722.80      0.0434065
      213.0000      53725.20      44722.80      0.2012923
      216.0000      43930.50      44722.80      -0.0177166
      219.0000      57009.60      44722.80      0.2747313
      222.0000      47925.70      44722.80      0.0716158
      225.0000      46455.90      44722.80      0.0387512
      228.0000      47268.00      44722.80      0.0569097
      231.0000      48622.90      44722.80      0.0872052
      234.0000      51797.60      44722.80      0.1581913
      237.0000      55338.30      44722.80      0.2373611
      240.0000      64872.10      44722.80      0.4505363
      243.0000      46644.70      44722.80      0.0429728
      246.0000      54436.50      44722.80      0.2171969
      249.0000      46722.90      44722.80      0.0447213
      252.0000      60112.50      44722.80      0.3441120
      255.0000      47675.20      44722.80      0.0660147
      258.0000      37034.70      44722.80      -0.1719063
      261.0000      46049.50      44722.80      0.0296641
      264.0000      47879.40      44722.80      0.0705806
      267.0000      46923.90      44722.80      0.0492156
      270.0000      44792.50      44722.80      0.0015577
      273.0000      60242.00      44722.80      0.3470076
      276.0000      50640.90      44722.80      0.1323275
      279.0000      62341.60      44722.80      0.3939545
      282.0000      54292.50      44722.80      0.2139771
      285.0000      58405.90      44722.80      0.3059525
      288.0000      39138.70      44722.80      -0.1248610
      291.0000      54837.70      44722.80      0.2261678
      294.0000      50616.10      44722.80      0.1317730
      297.0000      34963.90      44722.80      -0.2182093
      300.0000      39478.20      44722.80      -0.1172698
      303.0000      37568.60      44722.80      -0.1599683
      306.0000      59104.60      44722.80      0.3215754
      309.0000      48720.00      44722.80      0.0893763
      312.0000      56053.60      44722.80      0.2533552
      315.0000      51085.40      44722.80      0.1422665
      318.0000      50026.50      44722.80      0.1185896
      321.0000      56376.20      44722.80      0.2605685
      324.0000      46912.00      44722.80      0.0489496
      327.0000      48913.70      44722.80      0.0937075
      330.0000      57919.10      44722.80      0.2950677
      333.0000      46291.20      44722.80      0.0350685
      336.0000      38724.30      44722.80      -0.1341269
      339.0000      50728.80      44722.80      0.1342930
      342.0000      42344.00      44722.80      -0.0531906
      345.0000      46033.70      44722.80      0.0293108
      348.0000      42227.60      44722.80      -0.0557933
      351.0000      50787.30      44722.80      0.1356010
      354.0000      40399.60      44722.80      -0.0966673
      357.0000      42682.50      44722.80      -0.0456218
      360.0000      53747.30      44722.80      0.2017865
       4     121       19.5900     24.0000      1.00000      0.00000
      0.0000      52012.00      42671.00      0.2189064
      3.0000      47559.90      42671.00      0.1145710
      6.0000      51225.80      42671.00      0.2004817
      9.0000      38691.20      42671.00      -0.0932679
      12.0000      43641.10      42671.00      0.0227335
      15.0000      38522.70      42671.00      -0.0972167
      18.0000      48641.50      42671.00      0.1399184
      21.0000      38415.90      42671.00      -0.0997196
      24.0000      43085.20      42671.00      0.0097060
      27.0000      43085.20      42671.00      0.0097060
      30.0000      38772.10      42671.00      -0.0913720
      33.0000      32965.10      42671.00      -0.2274596
      36.0000      39863.20      42671.00      -0.0658019
      39.0000      25683.20      42671.00      -0.3981116
      42.0000      43546.30      42671.00      0.0205119
      45.0000      30189.00      42671.00      -0.2925178
      48.0000      35126.60      42671.00      -0.1768046
      51.0000      42259.20      42671.00      -0.0096514
      54.0000      41793.20      42671.00      -0.0205722
      57.0000      39924.70      42671.00      -0.0643607
      60.0000      36142.60      42671.00      -0.1529946
      63.0000      37085.30      42671.00      -0.1309023
      66.0000      35216.10      42671.00      -0.1747072
      69.0000      41854.80      42671.00      -0.0191286
      72.0000      30475.00      42671.00      -0.2858153
      75.0000      32475.80      42671.00      -0.2389264
      78.0000      21487.20      42671.00      -0.4964453
      81.0000      37055.80      42671.00      -0.1315936
      84.0000      27968.30      42671.00      -0.3445601
      87.0000      44124.90      42671.00      0.0340714
      90.0000      41458.30      42671.00      -0.0284206
      93.0000      34271.30      42671.00      -0.1968487
      96.0000      39413.70      42671.00      -0.0763360
      99.0000      49956.50      42671.00      0.1707356
      102.0000      42381.70      42671.00      -0.0067806
      105.0000      46614.80      42671.00      0.0924225
      108.0000      22253.80      42671.00      -0.4784800
      111.0000      28572.70      42671.00      -0.3303959
      114.0000      31131.30      42671.00      -0.2704349
      117.0000      23106.10      42671.00      -0.4585062
      120.0000      30370.90      42671.00      -0.2882549
      123.0000      34296.00      42671.00      -0.1962698
      126.0000      32503.80      42671.00      -0.2382702
      129.0000      31976.90      42671.00      -0.2506182
      132.0000      41946.60      42671.00      -0.0169772
      135.0000      38520.40      42671.00      -0.0972706
      138.0000      32526.40      42671.00      -0.2377406
      141.0000      41452.00      42671.00      -0.0285682
      144.0000      42180.00      42671.00      -0.0115075
      147.0000      40929.40      42671.00      -0.0408154
      150.0000      36884.60      42671.00      -0.1356057
      153.0000      52972.80      42671.00      0.2414229
      156.0000      39455.20      42671.00      -0.0753635
      159.0000      39971.70      42671.00      -0.0632592
      162.0000      27901.60      42671.00      -0.3461232
      165.0000      43341.70      42671.00      0.0157171
      168.0000      32242.90      42671.00      -0.2443844
      171.0000      47303.00      42671.00      0.1085505
      174.0000      39709.90      42671.00      -0.0693945
      177.0000      36232.50      42671.00      -0.1508877
      180.0000      48516.40      42671.00      0.1369867
      183.0000      47092.80      42671.00      0.1036245
      186.0000      45274.10      42671.00      0.0610030
      189.0000      45208.10      42671.00      0.0594563
      192.0000      46511.80      42671.00      0.0900087
      195.0000      57123.30      42671.00      0.3386902
      198.0000      45294.70      42671.00      0.0614858
      201.0000      33232.30      42671.00      -0.2211977
      204.0000      45318.90      42671.00      0.0620529
      207.0000      53972.10      42671.00      0.2648415
      210.0000      47827.50      42671.00      0.1208422
      213.0000      44029.10      42671.00      0.0318264
      216.0000      49469.40      42671.00      0.1593203
      219.0000      36488.80      42671.00      -0.1448813
      222.0000      40173.30      42671.00      -0.0585347
      225.0000      46674.30      42671.00      0.0938169
      228.0000      55321.30      42671.00      0.2964602
      231.0000      39531.20      42671.00      -0.0735824
      234.0000      47117.80      42671.00      0.1042103
      237.0000      51001.90      42671.00      0.1952346
      240.0000      49500.20      42671.00      0.1600421
      243.0000      48379.40      42671.00      0.1337761
      246.0000      43812.50      42671.00      0.0267503
      249.0000      53525.60      42671.00      0.2543778
      252.0000      39456.30      42671.00      -0.0753377
      255.0000      42114.70      42671.00      -0.0130378
      258.0000      48858.30      42671.00      0.1449991
      261.0000      48858.30      42671.00      0.1449991
      264.0000      46704.60      42671.00      0.0945270
      267.0000      45149.50      42671.00      0.0580830
      270.0000      53173.60      42671.00      0.2461286
      273.0000      60865.10      42671.00      0.4263797
      276.0000      54853.10      42671.00      0.2854879
      279.0000      59699.70      42671.00      0.3990684
      282.0000      51740.20      42671.00      0.2125367
      285.0000      58977.20      42671.00      0.3821366
      288.0000      49051.70      42671.00      0.1495315
      291.0000      58129.80      42671.00      0.3622777
      294.0000      51586.20      42671.00      0.2089277
      297.0000      36982.50      42671.00      -0.1333114
      300.0000      40368.30      42671.00      -0.0539649
      303.0000      50349.00      42671.00      0.1799338
      306.0000      52256.50      42671.00      0.2246363
      309.0000      45182.90      42671.00      0.0588658
      312.0000      52244.70      42671.00      0.2243598
      315.0000      41684.60      42671.00      -0.0231172
      318.0000      49989.40      42671.00      0.1715066
      321.0000      51493.60      42671.00      0.2067577
      324.0000      42042.30      42671.00      -0.0147345
      327.0000      49618.90      42671.00      0.1628239
      330.0000      46361.90      42671.00      0.0864958
      333.0000      44749.10      42671.00      0.0486996
      336.0000      44533.80      42671.00      0.0436540
      339.0000      42089.20      42671.00      -0.0136354
      342.0000      63681.30      42671.00      0.4923776
      345.0000      35806.40      42671.00      -0.1608734
      348.0000      36062.20      42671.00      -0.1548787
      351.0000      32077.90      42671.00      -0.2482512
      354.0000      51305.40      42671.00      0.2023472
      357.0000      41262.00      42671.00      -0.0330209
      360.0000      48516.40      42671.00      0.1369867
       5     121       19.5900     27.0000      1.00000      0.00000
      0.0000      62379.00      41685.90      0.4964065
      3.0000      77316.70      41685.90      0.8547462
      6.0000      52088.40      41685.90      0.2495458
      9.0000      57838.90      41685.90      0.3874943
      12.0000      37410.30      41685.90      -0.1025663
      15.0000      47941.20      41685.90      0.1500589
      18.0000      45651.70      41685.90      0.0951362
      21.0000      44179.40      41685.90      0.0598173
      24.0000      46115.30      41685.90      0.1062575
      27.0000      35605.40      41685.90      -0.1458640
      30.0000      38902.00      41685.90      -0.0667820
      33.0000      19458.40      41685.90      -0.5332135
      36.0000      41208.50      41685.90      -0.0114515
      39.0000      47403.20      41685.90      0.1371528
      42.0000      47107.40      41685.90      0.1300569
      45.0000      39030.80      41685.90      -0.0636922
      48.0000      38089.40      41685.90      -0.0862754
      51.0000      40517.00      41685.90      -0.0280399
      54.0000      35840.70      41685.90      -0.1402194
      57.0000      33239.30      41685.90      -0.2026242
      60.0000      26562.10      41685.90      -0.3628032
      63.0000      34346.10      41685.90      -0.1760732
      66.0000      29942.10      41685.90      -0.2817206
      69.0000      29942.10      41685.90      -0.2817206
      72.0000      29942.10      41685.90      -0.2817206
      75.0000      26652.90      41685.90      -0.3606250
      78.0000      30048.10      41685.90      -0.2791777
      81.0000      21579.50      41685.90      -0.4823305
      84.0000      21579.50      41685.90      -0.4823305
      87.0000      38081.30      41685.90      -0.0864697
      90.0000      36041.90      41685.90      -0.1353928
      93.0000      37914.10      41685.90      -0.0904807
      96.0000      36486.70      41685.90      -0.1247225
      99.0000      31392.10      41685.90      -0.2469366
      102.0000      32892.10      41685.90      -0.2109532
      105.0000      40107.50      41685.90      -0.0378633
      108.0000      28990.50      41685.90      -0.3045484
      111.0000      25112.60      41685.90      -0.3975752
      114.0000      25112.60      41685.90      -0.3975752
      117.0000      25014.10      41685.90      -0.3999381
      120.0000      14859.00      41685.90      -0.6435482
      123.0000      24962.80      41685.90      -0.4011687
      126.0000      39111.40      41685.90      -0.0617587
      129.0000      27695.40      41685.90      -0.3356165
      132.0000      34649.30      41685.90      -0.1687998
      135.0000      46127.90      41685.90      0.1065597
      138.0000      40058.80      41685.90      -0.0390316
      141.0000      33214.60      41685.90      -0.2032167
      144.0000      35079.70      41685.90      -0.1584750
      147.0000      30322.80      41685.90      -0.2725880
      150.0000      32729.20      41685.90      -0.2148610
      153.0000      31362.30      41685.90      -0.2476515
      156.0000      36923.30      41685.90      -0.1142489
      159.0000      36923.30      41685.90      -0.1142489
      162.0000      24049.40      41685.90      -0.4230802
      165.0000      37244.10      41685.90      -0.1065533
      168.0000      37244.10      41685.90      -0.1065533
      171.0000      30225.60      41685.90      -0.2749197
      174.0000      45977.90      41685.90      0.1029614
      177.0000      34816.10      41685.90      -0.1647984
      180.0000      41991.20      41685.90      0.0073246
      183.0000      36736.50      41685.90      -0.1187301
      186.0000      37109.20      41685.90      -0.1097894
      189.0000      43283.80      41685.90      0.0383328
      192.0000      45774.40      41685.90      0.0980796
      195.0000      49734.10      41685.90      0.1930687
      198.0000      49734.10      41685.90      0.1930687
      201.0000      54748.30      41685.90      0.3133540
      204.0000      54881.70      41685.90      0.3165542
      207.0000      38048.30      41685.90      -0.0872614
      210.0000      45380.40      41685.90      0.0886280
      213.0000      41904.30      41685.90      0.0052400
      216.0000      45910.10      41685.90      0.1013349
      219.0000      45910.10      41685.90      0.1013349
      222.0000      48661.50      41685.90      0.1673381
      225.0000      50698.30      41685.90      0.2161988
      228.0000      42940.80      41685.90      0.0301045
      231.0000      47106.00      41685.90      0.1300233
      234.0000      60982.60      41685.90      0.4629083
      237.0000      49667.00      41685.90      0.1914590
      240.0000      38252.30      41685.90      -0.0823676
      243.0000      50687.00      41685.90      0.2159277
      246.0000      54945.40      41685.90      0.3180823
      249.0000      51990.20      41685.90      0.2471901
      252.0000      50262.90      41685.90      0.2057540
      255.0000      51519.00      41685.90      0.2358865
      258.0000      45477.20      41685.90      0.0909501
      261.0000      44345.40      41685.90      0.0637994
      264.0000      41875.80      41685.90      0.0045563
      267.0000      46110.70      41685.90      0.1061471
      270.0000      53683.70      41685.90      0.2878154
      273.0000      55591.20      41685.90      0.3335743
      276.0000      54630.60      41685.90      0.3105305
      279.0000      61092.20      41685.90      0.4655375
      282.0000      45540.20      41685.90      0.0924614
      285.0000      58673.80      41685.90      0.4075226
      288.0000      47956.90      41685.90      0.1504355
      291.0000      58151.60      41685.90      0.3949956
      294.0000      46283.20      41685.90      0.1102852
      297.0000      51048.40      41685.90      0.2245973
      300.0000      45915.10      41685.90      0.1014549
      303.0000      34842.50      41685.90      -0.1641651
      306.0000      50376.00      41685.90      0.2084672
      309.0000      54938.30      41685.90      0.3179119
      312.0000      47355.00      41685.90      0.1359966
      315.0000      33123.30      41685.90      -0.2054069
      318.0000      47041.00      41685.90      0.1284640
      321.0000      41259.70      41685.90      -0.0102233
      324.0000      60071.60      41685.90      0.4410544
      327.0000      45280.60      41685.90      0.0862339
      330.0000      46507.90      41685.90      0.1156755
      333.0000      45048.20      41685.90      0.0806589
      336.0000      59209.20      41685.90      0.4203663
      339.0000      43876.40      41685.90      0.0525486
      342.0000      30273.10      41685.90      -0.2737802
      345.0000      37789.80      41685.90      -0.0934625
      348.0000      44065.60      41685.90      0.0570873
      351.0000      53855.50      41685.90      0.2919367
      354.0000      38721.70      41685.90      -0.0711072
      357.0000      34793.00      41685.90      -0.1653526
      360.0000      41991.20      41685.90      0.0073246
       6     121       19.5900     30.0000      1.00000      0.00000
      0.0000      136665.70      94629.90      0.4442129
      3.0000      122797.70      94629.90      0.2976630
      6.0000      102378.00      94629.90      0.0818781
      9.0000      107680.90      94629.90      0.1379164
      12.0000      78527.10      94629.90      -0.1701660
      15.0000      120176.60      94629.90      0.2699646
      18.0000      79836.70      94629.90      -0.1563268
      21.0000      123661.00      94629.90      0.3067859
      24.0000      123661.00      94629.90      0.3067859
      27.0000      81297.40      94629.90      -0.1408908
      30.0000      67095.20      94629.90      -0.2909724
      33.0000      96117.90      94629.90      0.0157246
      36.0000      66846.00      94629.90      -0.2936058
      39.0000      96100.10      94629.90      0.0155365
      42.0000      57057.30      94629.90      -0.3970478
      45.0000      109046.30      94629.90      0.1523453
      48.0000      91652.50      94629.90      -0.0314635
      51.0000      87849.90      94629.90      -0.0716474
      54.0000      100326.70      94629.90      0.0602010
      57.0000      77312.20      94629.90      -0.1830044
      60.0000      70803.90      94629.90      -0.2517808
      63.0000      72232.90      94629.90      -0.2366798
      66.0000      68356.90      94629.90      -0.2776394
      69.0000      71156.30      94629.90      -0.2480568
      72.0000      71156.30      94629.90      -0.2480568
      75.0000      83137.20      94629.90      -0.1214488
      78.0000      55851.60      94629.90      -0.4097890
      81.0000      80311.50      94629.90      -0.1513093
      84.0000      74570.50      94629.90      -0.2119773
      87.0000      72701.50      94629.90      -0.2317279
      90.0000      68057.70      94629.90      -0.2808012
      93.0000      77861.60      94629.90      -0.1771986
      96.0000      88769.10      94629.90      -0.0619338
      99.0000      88769.10      94629.90      -0.0619338
      102.0000      65751.40      94629.90      -0.3051730
      105.0000      52983.80      94629.90      -0.4400944
      108.0000      66429.10      94629.90      -0.2980114
      111.0000      79445.50      94629.90      -0.1604608
      114.0000      65650.00      94629.90      -0.3062445
      117.0000      55469.40      94629.90      -0.4138279
      120.0000      57905.90      94629.90      -0.3880802
      123.0000      67737.70      94629.90      -0.2841828
      126.0000      72123.70      94629.90      -0.2378338
      129.0000      44918.20      94629.90      -0.5253275
      132.0000      96313.30      94629.90      0.0177895
      135.0000      78298.80      94629.90      -0.1725785
      138.0000      84617.70      94629.90      -0.1058036
      141.0000      60548.20      94629.90      -0.3601577
      144.0000      70293.00      94629.90      -0.2571797
      147.0000      76452.00      94629.90      -0.1920945
      150.0000      80363.30      94629.90      -0.1507619
      153.0000      86667.80      94629.90      -0.0841392
      156.0000      76868.00      94629.90      -0.1876985
      159.0000      82536.10      94629.90      -0.1278009
      162.0000      59596.40      94629.90      -0.3702159
      165.0000      78408.20      94629.90      -0.1714224
      168.0000      85616.30      94629.90      -0.0952509
      171.0000      69962.90      94629.90      -0.2606680
      174.0000      72058.50      94629.90      -0.2385228
      177.0000      85176.70      94629.90      -0.0998964
      180.0000      92801.20      94629.90      -0.0193246
      183.0000      111107.10      94629.90      0.1741228
      186.0000      85477.70      94629.90      -0.0967156
      189.0000      111594.30      94629.90      0.1792712
      192.0000      119329.40      94629.90      0.2610118
      195.0000      103917.00      94629.90      0.0981415
      198.0000      125463.60      94629.90      0.3258349
      201.0000      100378.90      94629.90      0.0607526
      204.0000      95625.70      94629.90      0.0105233
      207.0000      85918.40      94629.90      -0.0920585
      210.0000      119428.10      94629.90      0.2620548
      213.0000      127287.10      94629.90      0.3451047
      216.0000      91320.90      94629.90      -0.0349676
      219.0000      97498.80      94629.90      0.0303172
      222.0000      109234.20      94629.90      0.1543309
      225.0000      113114.30      94629.90      0.1953338
      228.0000      106232.30      94629.90      0.1226084
      231.0000      125992.80      94629.90      0.3314272
      234.0000      116371.80      94629.90      0.2297574
      237.0000      124114.60      94629.90      0.3115793
      240.0000      124137.50      94629.90      0.3118213
      243.0000      112031.30      94629.90      0.1838892
      246.0000      136242.10      94629.90      0.4397365
      249.0000      123548.70      94629.90      0.3055992
      252.0000      130744.80      94629.90      0.3816439
      255.0000      87315.60      94629.90      -0.0772936
      258.0000      129101.80      94629.90      0.3642815
      261.0000      113307.30      94629.90      0.1973733
      264.0000      109657.60      94629.90      0.1588052
      267.0000      112552.30      94629.90      0.1893949
      270.0000      104161.60      94629.90      0.1007263
      273.0000      146512.90      94629.90      0.5482731
      276.0000      118246.50      94629.90      0.2495683
      279.0000      129768.00      94629.90      0.3713216
      282.0000      127045.50      94629.90      0.3425516
      285.0000      114541.10      94629.90      0.2104115
      288.0000      110955.00      94629.90      0.1725154
      291.0000      116285.90      94629.90      0.2288496
      294.0000      121097.00      94629.90      0.2796909
      297.0000      132329.80      94629.90      0.3983933
      300.0000      134108.90      94629.90      0.4171940
      303.0000      104963.50      94629.90      0.1092003
      306.0000      121187.70      94629.90      0.2806494
      309.0000      124107.40      94629.90      0.3115032
      312.0000      98559.70      94629.90      0.0415283
      315.0000      122065.30      94629.90      0.2899234
      318.0000      77824.10      94629.90      -0.1775949
      321.0000      95870.90      94629.90      0.0131144
      324.0000      100204.30      94629.90      0.0589076
      327.0000      102976.50      94629.90      0.0882027
      330.0000      98542.60      94629.90      0.0413476
      333.0000      96474.40      94629.90      0.0194919
      336.0000      98224.30      94629.90      0.0379839
      339.0000      87745.40      94629.90      -0.0727517
      342.0000      76546.90      94629.90      -0.1910917
      345.0000      74215.40      94629.90      -0.2157298
      348.0000      86721.40      94629.90      -0.0835728
      351.0000      61894.60      94629.90      -0.3459297
      354.0000      103556.00      94629.90      0.0943266
      357.0000      85992.10      94629.90      -0.0912797
      360.0000      92801.20      94629.90      -0.0193246
       7     121       19.5900     33.0000      1.00000      0.00000
      0.0000      85378.10      93807.40      -0.0898576
      3.0000      89444.00      93807.40      -0.0465145
      6.0000      88542.60      93807.40      -0.0561235
      9.0000      86661.40      93807.40      -0.0761774
      12.0000      91801.20      93807.40      -0.0213864
      15.0000      80058.40      93807.40      -0.1465663
      18.0000      76079.20      93807.40      -0.1889851
      21.0000      80467.10      93807.40      -0.1422095
      24.0000      69906.50      93807.40      -0.2547870
      27.0000      70140.00      93807.40      -0.2522978
      30.0000      72824.40      93807.40      -0.2236817
      33.0000      72780.90      93807.40      -0.2241455
      36.0000      71547.00      93807.40      -0.2372990
      39.0000      68559.90      93807.40      -0.2691419
      42.0000      66729.90      93807.40      -0.2886500
      45.0000      65509.00      93807.40      -0.3016649
      48.0000      69807.00      93807.40      -0.2558477
      51.0000      79040.00      93807.40      -0.1574226
      54.0000      82147.20      93807.40      -0.1242994
      57.0000      54054.30      93807.40      -0.4237736
      60.0000      72744.50      93807.40      -0.2245335
      63.0000      86609.10      93807.40      -0.0767349
      66.0000      72213.90      93807.40      -0.2301898
      69.0000      66565.00      93807.40      -0.2904078
      72.0000      67511.50      93807.40      -0.2803180
      75.0000      52358.40      93807.40      -0.4418522
      78.0000      51331.60      93807.40      -0.4527980
      81.0000      60192.30      93807.40      -0.3583417
      84.0000      52240.10      93807.40      -0.4431133
      87.0000      67920.20      93807.40      -0.2759612
      90.0000      75834.90      93807.40      -0.1915894
      93.0000      90121.60      93807.40      -0.0392912
      96.0000      69551.10      93807.40      -0.2585756
      99.0000      63471.70      93807.40      -0.3233828
      102.0000      73208.50      93807.40      -0.2195872
      105.0000      66439.10      93807.40      -0.2917499
      108.0000      67727.50      93807.40      -0.2780154
      111.0000      59902.60      93807.40      -0.3614299
      114.0000      68093.50      93807.40      -0.2741138
      117.0000      56957.00      93807.40      -0.3928304
      120.0000      92735.50      93807.40      -0.0114266
      123.0000      60717.60      93807.40      -0.3527419
      126.0000      59480.50      93807.40      -0.3659296
      129.0000      70902.10      93807.40      -0.2441737
      132.0000      63589.50      93807.40      -0.3221271
      135.0000      67732.50      93807.40      -0.2779621
      138.0000      70944.30      93807.40      -0.2437239
      141.0000      86215.40      93807.40      -0.0809318
      144.0000      88870.90      93807.40      -0.0526238
      147.0000      87078.60      93807.40      -0.0717300
      150.0000      83176.30      93807.40      -0.1133291
      153.0000      74526.40      93807.40      -0.2055382
      156.0000      82202.40      93807.40      -0.1237110
      159.0000      89763.10      93807.40      -0.0431128
      162.0000      75548.90      93807.40      -0.1946382
      165.0000      79188.30      93807.40      -0.1558417
      168.0000      102392.30      93807.40      0.0915162
      171.0000      74377.60      93807.40      -0.2071244
      174.0000      88035.30      93807.40      -0.0615314
      177.0000      91704.10      93807.40      -0.0224215
      180.0000      69444.30      93807.40      -0.2597141
      183.0000      100862.50      93807.40      0.0752083
      186.0000      91384.50      93807.40      -0.0258285
      189.0000      99491.90      93807.40      0.0605975
      192.0000      99491.90      93807.40      0.0605975
      195.0000      97383.10      93807.40      0.0381174
      198.0000      113526.30      93807.40      0.2102062
      201.0000      102163.60      93807.40      0.0890782
      204.0000      111329.10      93807.40      0.1867837
      207.0000      97952.40      93807.40      0.0441862
      210.0000      103544.60      93807.40      0.1037999
      213.0000      89577.10      93807.40      -0.0450956
      216.0000      109529.40      93807.40      0.1675987
      219.0000      106072.50      93807.40      0.1307476
      222.0000      130253.80      93807.40      0.3885237
      225.0000      119299.30      93807.40      0.2717472
      228.0000      144442.70      93807.40      0.5397793
      231.0000      111899.30      93807.40      0.1928621
      234.0000      137517.50      93807.40      0.4659557
      237.0000      120569.90      93807.40      0.2852919
      240.0000      118678.40      93807.40      0.2651283
      243.0000      132291.00      93807.40      0.4102405
      246.0000      99240.80      93807.40      0.0579208
      249.0000      154068.50      93807.40      0.6423917
      252.0000      120594.90      93807.40      0.2855584
      255.0000      132912.30      93807.40      0.4168636
      258.0000      124811.50      93807.40      0.3305080
      261.0000      167025.60      93807.40      0.7805162
      264.0000      125139.40      93807.40      0.3340034
      267.0000      132248.00      93807.40      0.4097821
      270.0000      130621.80      93807.40      0.3924466
      273.0000      136717.90      93807.40      0.4574319
      276.0000      123793.90      93807.40      0.3196602
      279.0000      116403.70      93807.40      0.2408797
      282.0000      151013.40      93807.40      0.6098239
      285.0000      99227.00      93807.40      0.0577736
      288.0000      122588.60      93807.40      0.3068116
      291.0000      121563.30      93807.40      0.2958817
      294.0000      94857.00      93807.40      0.0111888
      297.0000      103640.80      93807.40      0.1048254
      300.0000      123353.50      93807.40      0.3149655
      303.0000      105496.00      93807.40      0.1246021
      306.0000      96962.70      93807.40      0.0336359
      309.0000      145304.90      93807.40      0.5489705
      312.0000      113614.10      93807.40      0.2111421
      315.0000      103923.00      93807.40      0.1078337
      318.0000      112261.90      93807.40      0.1967275
      321.0000      122827.00      93807.40      0.3093529
      324.0000      110381.70      93807.40      0.1766843
      327.0000      118667.90      93807.40      0.2650164
      330.0000      110360.80      93807.40      0.1764615
      333.0000      96211.80      93807.40      0.0256312
      336.0000      116697.90      93807.40      0.2440159
      339.0000      93612.20      93807.40      -0.0020809
      342.0000      104841.00      93807.40      0.1176197
      345.0000      104841.00      93807.40      0.1176197
      348.0000      91275.20      93807.40      -0.0269936
      351.0000      87296.50      93807.40      -0.0694071
      354.0000      90129.00      93807.40      -0.0392123
      357.0000      94003.10      93807.40      0.0020861
      360.0000      69444.30      93807.40      -0.2597141
       8     121       19.5900     36.0000      1.00000      0.00000
      0.0000      78161.50      78910.80      -0.0094953
      3.0000      83766.00      78910.80      0.0615279
      6.0000      75534.70      78910.80      -0.0427835
      9.0000      76515.30      78910.80      -0.0303568
      12.0000      75722.10      78910.80      -0.0404087
      15.0000      69100.90      78910.80      -0.1243161
      18.0000      64633.00      78910.80      -0.1809358
      21.0000      46111.40      78910.80      -0.4156515
      24.0000      55831.00      78910.80      -0.2924794
      27.0000      64110.30      78910.80      -0.1875597
      30.0000      61919.60      78910.80      -0.2153214
      33.0000      61912.60      78910.80      -0.2154101
      36.0000      61912.60      78910.80      -0.2154101
      39.0000      63977.90      78910.80      -0.1892375
      42.0000      67593.60      78910.80      -0.1434174
      45.0000      65517.20      78910.80      -0.1697307
      48.0000      67427.60      78910.80      -0.1455211
      51.0000      68529.50      78910.80      -0.1315572
      54.0000      67538.70      78910.80      -0.1441132
      57.0000      56231.30      78910.80      -0.2874066
      60.0000      59432.80      78910.80      -0.2468355
      63.0000      60697.60      78910.80      -0.2308073
      66.0000      56853.30      78910.80      -0.2795243
      69.0000      61757.30      78910.80      -0.2173782
      72.0000      53719.50      78910.80      -0.3192375
      75.0000      49911.70      78910.80      -0.3674920
      78.0000      45276.50      78910.80      -0.4262318
      81.0000      53869.70      78910.80      -0.3173341
      84.0000      43852.10      78910.80      -0.4442825
      87.0000      47623.70      78910.80      -0.3964868
      90.0000      56993.40      78910.80      -0.2777489
      93.0000      54879.50      78910.80      -0.3045374
      96.0000      52814.00      78910.80      -0.3307125
      99.0000      56635.90      78910.80      -0.2822793
      102.0000      54271.20      78910.80      -0.3122461
      105.0000      46462.20      78910.80      -0.4112059
      108.0000      55257.30      78910.80      -0.2997497
      111.0000      47179.00      78910.80      -0.4021223
      114.0000      52050.90      78910.80      -0.3403829
      117.0000      53611.20      78910.80      -0.3206099
      120.0000      48746.90      78910.80      -0.3822530
      123.0000      58358.40      78910.80      -0.2604509
      126.0000      60055.90      78910.80      -0.2389392
      129.0000      58099.50      78910.80      -0.2637318
      132.0000      67714.10      78910.80      -0.1418904
      135.0000      68306.30      78910.80      -0.1343857
      138.0000      68674.00      78910.80      -0.1297260
      141.0000      66888.40      78910.80      -0.1523541
      144.0000      67175.40      78910.80      -0.1487171
      147.0000      72095.30      78910.80      -0.0863695
      150.0000      76991.20      78910.80      -0.0243260
      153.0000      68142.20      78910.80      -0.1364653
      156.0000      67574.50      78910.80      -0.1436595
      159.0000      64936.70      78910.80      -0.1770871
      162.0000      65581.60      78910.80      -0.1689146
      165.0000      74321.10      78910.80      -0.0581629
      168.0000      65749.40      78910.80      -0.1667881
      171.0000      67569.10      78910.80      -0.1437279
      174.0000      70058.40      78910.80      -0.1121822
      177.0000      70644.60      78910.80      -0.1047535
      180.0000      71921.70      78910.80      -0.0885694
      183.0000      73883.70      78910.80      -0.0637059
      186.0000      76801.50      78910.80      -0.0267300
      189.0000      84111.50      78910.80      0.0659063
      192.0000      78569.00      78910.80      -0.0043312
      195.0000      79467.00      78910.80      0.0070487
      198.0000      81215.80      78910.80      0.0292104
      201.0000      79989.70      78910.80      0.0136726
      204.0000      68964.40      78910.80      -0.1260459
      207.0000      81150.60      78910.80      0.0283842
      210.0000      86050.40      78910.80      0.0904771
      213.0000      90015.00      78910.80      0.1407186
      216.0000      90418.10      78910.80      0.1458269
      219.0000      99497.50      78910.80      0.2608860
      222.0000      102765.10      78910.80      0.3022948
      225.0000      102441.10      78910.80      0.2981889
      228.0000      99174.10      78910.80      0.2567877
      231.0000      102723.30      78910.80      0.3017651
      234.0000      101789.80      78910.80      0.2899353
      237.0000      101347.70      78910.80      0.2843327
      240.0000      106818.50      78910.80      0.3536617
      243.0000      108213.60      78910.80      0.3713411
      246.0000      112007.60      78910.80      0.4194207
      249.0000      107292.30      78910.80      0.3596659
      252.0000      110678.50      78910.80      0.4025777
      255.0000      109946.80      78910.80      0.3933052
      258.0000      107989.80      78910.80      0.3685050
      261.0000      102745.70      78910.80      0.3020489
      264.0000      107366.20      78910.80      0.3606024
      267.0000      112247.20      78910.80      0.4224571
      270.0000      106917.60      78910.80      0.3549175
      273.0000      113079.70      78910.80      0.4330070
      276.0000      106926.00      78910.80      0.3550240
      279.0000      114997.10      78910.80      0.4573053
      282.0000      110227.00      78910.80      0.3968560
      285.0000      107751.30      78910.80      0.3654826
      288.0000      109411.60      78910.80      0.3865228
      291.0000      101394.10      78910.80      0.2849207
      294.0000      99160.90      78910.80      0.2566204
      297.0000      94234.10      78910.80      0.1941854
      300.0000      99112.20      78910.80      0.2560033
      303.0000      96224.70      78910.80      0.2194113
      306.0000      96961.40      78910.80      0.2287472
      309.0000      118257.10      78910.80      0.4986178
      312.0000      98979.80      78910.80      0.2543254
      315.0000      102258.80      78910.80      0.2958787
      318.0000      101765.10      78910.80      0.2896223
      321.0000      98630.50      78910.80      0.2498989
      324.0000      98127.60      78910.80      0.2435259
      327.0000      101685.70      78910.80      0.2886161
      330.0000      90386.20      78910.80      0.1454227
      333.0000      84946.10      78910.80      0.0764828
      336.0000      79225.70      78910.80      0.0039908
      339.0000      81135.60      78910.80      0.0281941
      342.0000      86399.90      78910.80      0.0949061
      345.0000      84166.40      78910.80      0.0666020
      348.0000      90843.40      78910.80      0.1512166
      351.0000      74252.10      78910.80      -0.0590373
      354.0000      77413.00      78910.80      -0.0189807
      357.0000      83941.30      78910.80      0.0637494
      360.0000      71921.70      78910.80      -0.0885694
       9     121       19.5900     39.0000      1.00000      0.00000
      0.0000      77067.40      79554.60      -0.0312644
      3.0000      75134.90      79554.60      -0.0555559
      6.0000      80087.20      79554.60      0.0066944
      9.0000      72466.40      79554.60      -0.0890989
      12.0000      71531.70      79554.60      -0.1008480
      15.0000      67866.20      79554.60      -0.1469233
      18.0000      63174.30      79554.60      -0.2059004
      21.0000      54971.70      79554.60      -0.3090069
      24.0000      60181.80      79554.60      -0.2435160
      27.0000      75394.20      79554.60      -0.0522965
      30.0000      67148.20      79554.60      -0.1559485
      33.0000      78684.70      79554.60      -0.0109350
      36.0000      65355.00      79554.60      -0.1784890
      39.0000      72209.30      79554.60      -0.0923306
      42.0000      73103.60      79554.60      -0.0810893
      45.0000      80159.20      79554.60      0.0075995
      48.0000      76749.10      79554.60      -0.0352654
      51.0000      76178.40      79554.60      -0.0424391
      54.0000      71400.90      79554.60      -0.1024922
      57.0000      74697.20      79554.60      -0.0610578
      60.0000      72665.30      79554.60      -0.0865987
      63.0000      69723.50      79554.60      -0.1235771
      66.0000      57680.70      79554.60      -0.2749548
      69.0000      62683.20      79554.60      -0.2120735
      72.0000      62522.90      79554.60      -0.2140885
      75.0000      55536.00      79554.60      -0.3019137
      78.0000      53170.20      79554.60      -0.3316517
      81.0000      53170.20      79554.60      -0.3316517
      84.0000      46263.20      79554.60      -0.4184726
      87.0000      49217.30      79554.60      -0.3813396
      90.0000      51679.50      79554.60      -0.3503898
      93.0000      58569.20      79554.60      -0.2637864
      96.0000      64936.90      79554.60      -0.1837445
      99.0000      51659.80      79554.60      -0.3506374
      102.0000      46630.10      79554.60      -0.4138606
      105.0000      55107.00      79554.60      -0.3073062
      108.0000      46182.10      79554.60      -0.4194920
      111.0000      48394.30      79554.60      -0.3916847
      114.0000      57049.60      79554.60      -0.2828877
      117.0000      55749.30      79554.60      -0.2992325
      120.0000      57033.90      79554.60      -0.2830851
      123.0000      63222.40      79554.60      -0.2052958
      126.0000      62211.70      79554.60      -0.2180002
      129.0000      67452.50      79554.60      -0.1521235
      132.0000      75233.90      79554.60      -0.0543115
      135.0000      75875.10      79554.60      -0.0462516
      138.0000      71676.30      79554.60      -0.0990304
      141.0000      70611.80      79554.60      -0.1124112
      144.0000      75759.60      79554.60      -0.0477034
      147.0000      72430.10      79554.60      -0.0895552
      150.0000      73911.10      79554.60      -0.0709390
      153.0000      73593.10      79554.60      -0.0749363
      156.0000      64185.70      79554.60      -0.1931871
      159.0000      65873.80      79554.60      -0.1719677
      162.0000      73502.40      79554.60      -0.0760764
      165.0000      63333.10      79554.60      -0.2039043
      168.0000      65565.60      79554.60      -0.1758418
      171.0000      61623.80      79554.60      -0.2253901
      174.0000      70030.20      79554.60      -0.1197219
      177.0000      66192.30      79554.60      -0.1679642
      180.0000      67510.10      79554.60      -0.1513995
      183.0000      60656.40      79554.60      -0.2375503
      186.0000      80978.30      79554.60      0.0178955
      189.0000      82372.40      79554.60      0.0354193
      192.0000      77788.30      79554.60      -0.0222027
      195.0000      84405.70      79554.60      0.0609779
      198.0000      76360.80      79554.60      -0.0401464
      201.0000      75452.30      79554.60      -0.0515662
      204.0000      77572.00      79554.60      -0.0249216
      207.0000      82624.00      79554.60      0.0385819
      210.0000      82207.00      79554.60      0.0333403
      213.0000      89692.60      79554.60      0.1274341
      216.0000      90581.50      79554.60      0.1386075
      219.0000      92428.50      79554.60      0.1618243
      222.0000      102230.50      79554.60      0.2850352
      225.0000      99288.40      79554.60      0.2480531
      228.0000      99829.90      79554.60      0.2548597
      231.0000      111119.20      79554.60      0.3967660
      234.0000      113283.70      79554.60      0.4239737
      237.0000      111615.40      79554.60      0.4030032
      240.0000      115301.40      79554.60      0.4493362
      243.0000      109173.60      79554.60      0.3723098
      246.0000      107932.50      79554.60      0.3567092
      249.0000      117193.60      79554.60      0.4731211
      252.0000      108010.30      79554.60      0.3576872
      255.0000      111663.80      79554.60      0.4036116
      258.0000      110482.20      79554.60      0.3887589
      261.0000      102331.90      79554.60      0.2863098
      264.0000      102158.30      79554.60      0.2841277
      267.0000      104393.50      79554.60      0.3122241
      270.0000      105633.10      79554.60      0.3278058
      273.0000      110024.60      79554.60      0.3830069
      276.0000      107822.40      79554.60      0.3553253
      279.0000      106870.00      79554.60      0.3433536
      282.0000      109982.20      79554.60      0.3824739
      285.0000      96590.50      79554.60      0.2141405
      288.0000      106500.60      79554.60      0.3387103
      291.0000      93073.10      79554.60      0.1699269
      294.0000      93324.60      79554.60      0.1730883
      297.0000      99759.70      79554.60      0.2539773
      300.0000      97956.60      79554.60      0.2313124
      303.0000      91560.30      79554.60      0.1509110
      306.0000      93790.50      79554.60      0.1789446
      309.0000      93790.50      79554.60      0.1789446
      312.0000      93790.50      79554.60      0.1789446
      315.0000      93790.50      79554.60      0.1789446
      318.0000      93790.50      79554.60      0.1789446
      321.0000      91617.90      79554.60      0.1516351
      324.0000      97243.00      79554.60      0.2223425
      327.0000      90030.80      79554.60      0.1316853
      330.0000      99357.30      79554.60      0.2489192
      333.0000      93392.00      79554.60      0.1739355
      336.0000      90300.10      79554.60      0.1350704
      339.0000      83117.80      79554.60      0.0447890
      342.0000      79277.80      79554.60      -0.0034797
      345.0000      82968.70      79554.60      0.0429148
      348.0000      67672.40      79554.60      -0.1493594
      351.0000      71824.40      79554.60      -0.0971688
      354.0000      69375.90      79554.60      -0.1279464
      357.0000      74218.90      79554.60      -0.0670700
      360.0000      67510.10      79554.60      -0.1513995
       10     121       19.5900     42.0000      1.00000      0.00000
      0.0000      63531.50      73681.40      -0.1377543
      3.0000      72427.20      73681.40      -0.0170224
      6.0000      67251.10      73681.40      -0.0872721
      9.0000      71093.20      73681.40      -0.0351273
      12.0000      59016.80      73681.40      -0.1990275
      15.0000      55841.70      73681.40      -0.2421198
      18.0000      56235.90      73681.40      -0.2367697
      21.0000      47239.20      73681.40      -0.3588724
      24.0000      56238.10      73681.40      -0.2367399
      27.0000      55197.70      73681.40      -0.2508601
      30.0000      55840.80      73681.40      -0.2421320
      33.0000      59302.90      73681.40      -0.1951446
      36.0000      54774.90      73681.40      -0.2565983
      39.0000      58512.20      73681.40      -0.2058759
      42.0000      66988.10      73681.40      -0.0908415
      45.0000      73098.90      73681.40      -0.0079061
      48.0000      73778.40      73681.40      0.0013160
      51.0000      67405.10      73681.40      -0.0851820
      54.0000      69219.10      73681.40      -0.0605625
      57.0000      71632.10      73681.40      -0.0278134
      60.0000      62741.60      73681.40      -0.1484748
      63.0000      58475.30      73681.40      -0.2063767
      66.0000      47566.90      73681.40      -0.3544249
      69.0000      50315.10      73681.40      -0.3171265
      72.0000      45098.50      73681.40      -0.3879259
      75.0000      49124.30      73681.40      -0.3332879
      78.0000      47241.40      73681.40      -0.3588425
      81.0000      46228.40      73681.40      -0.3725909
      84.0000      44050.90      73681.40      -0.4021438
      87.0000      44787.50      73681.40      -0.3921467
      90.0000      43293.70      73681.40      -0.4124205
      93.0000      40846.40      73681.40      -0.4456351
      96.0000      49501.60      73681.40      -0.3281672
      99.0000      49014.10      73681.40      -0.3347836
      102.0000      42275.70      73681.40      -0.4262367
      105.0000      42935.50      73681.40      -0.4172820
      108.0000      43295.70      73681.40      -0.4123933
      111.0000      45153.30      73681.40      -0.3871821
      114.0000      44576.40      73681.40      -0.3950118
      117.0000      39274.90      73681.40      -0.4669634
      120.0000      50526.00      73681.40      -0.3142641
      123.0000      50909.60      73681.40      -0.3090580
      126.0000      54514.90      73681.40      -0.2601270
      129.0000      54514.90      73681.40      -0.2601270
      132.0000      56473.10      73681.40      -0.2335505
      135.0000      65933.90      73681.40      -0.1051490
      138.0000      69188.20      73681.40      -0.0609819
      141.0000      58828.80      73681.40      -0.2015790
      144.0000      67621.90      73681.40      -0.0822396
      147.0000      69603.60      73681.40      -0.0553441
      150.0000      62601.30      73681.40      -0.1503789
      153.0000      62043.50      73681.40      -0.1579493
      156.0000      54379.50      73681.40      -0.2619647
      159.0000      56199.20      73681.40      -0.2372678
      162.0000      59349.50      73681.40      -0.1945121
      165.0000      53500.50      73681.40      -0.2738944
      168.0000      56227.20      73681.40      -0.2368878
      171.0000      52969.90      73681.40      -0.2810957
      174.0000      55129.90      73681.40      -0.2517803
      177.0000      63330.40      73681.40      -0.1404836
      180.0000      54893.60      73681.40      -0.2549873
      183.0000      61266.60      73681.40      -0.1684934
      186.0000      68293.70      73681.40      -0.0731220
      189.0000      61857.50      73681.40      -0.1604737
      192.0000      62024.20      73681.40      -0.1582113
      195.0000      60336.60      73681.40      -0.1811153
      198.0000      59652.80      73681.40      -0.1903958
      201.0000      72429.20      73681.40      -0.0169952
      204.0000      70063.90      73681.40      -0.0490969
      207.0000      71271.30      73681.40      -0.0327102
      210.0000      81860.10      73681.40      0.1110004
      213.0000      85740.50      73681.40      0.1636649
      216.0000      83446.80      73681.40      0.1325350
      219.0000      81183.10      73681.40      0.1018122
      222.0000      86958.10      73681.40      0.1801901
      225.0000      93580.80      73681.40      0.2700730
      228.0000      96355.10      73681.40      0.3077257
      231.0000      95748.60      73681.40      0.2994943
      234.0000      96271.40      73681.40      0.3065897
      237.0000      108359.70      73681.40      0.4706514
      240.0000      105050.30      73681.40      0.4257364
      243.0000      99370.60      73681.40      0.3486518
      246.0000      99663.00      73681.40      0.3526203
      249.0000      101603.40      73681.40      0.3789553
      252.0000      104583.30      73681.40      0.4193983
      255.0000      107204.50      73681.40      0.4549731
      258.0000      103305.90      73681.40      0.4020615
      261.0000      104636.30      73681.40      0.4201176
      264.0000      106466.90      73681.40      0.4449624
      267.0000      101459.70      73681.40      0.3770050
      270.0000      100369.20      73681.40      0.3622048
      273.0000      106926.50      73681.40      0.4512001
      276.0000      105463.70      73681.40      0.4313470
      279.0000      113998.70      73681.40      0.5471835
      282.0000      108179.20      73681.40      0.4682016
      285.0000      100313.70      73681.40      0.3614515
      288.0000      90410.80      73681.40      0.2270500
      291.0000      93625.50      73681.40      0.2706797
      294.0000      99603.50      73681.40      0.3518128
      297.0000      103593.90      73681.40      0.4059702
      300.0000      102490.50      73681.40      0.3909949
      303.0000      99980.00      73681.40      0.3569226
      306.0000      101541.70      73681.40      0.3781179
      309.0000      101201.80      73681.40      0.3735048
      312.0000      103172.30      73681.40      0.4002483
      315.0000      114041.00      73681.40      0.5477576
      318.0000      106275.70      73681.40      0.4423675
      321.0000      107099.90      73681.40      0.4535534
      324.0000      107403.40      73681.40      0.4576725
      327.0000      97061.70      73681.40      0.3173156
      330.0000      104230.80      73681.40      0.4146142
      333.0000      100958.30      73681.40      0.3702000
      336.0000      96546.70      73681.40      0.3103260
      339.0000      85669.10      73681.40      0.1626959
      342.0000      81269.60      73681.40      0.1029862
      345.0000      80161.80      73681.40      0.0879512
      348.0000      72918.90      73681.40      -0.0103490
      351.0000      66139.20      73681.40      -0.1023627
      354.0000      71565.20      73681.40      -0.0287214
      357.0000      70354.20      73681.40      -0.0451570
      360.0000      54893.60      73681.40      -0.2549873
       11     121       19.5900     45.0000      1.00000      0.00000
      0.0000      65077.00      72670.10      -0.1044867
      3.0000      74959.00      72670.10      0.0314978
      6.0000      75190.20      72670.10      0.0346793
      9.0000      75134.20      72670.10      0.0339087
      12.0000      63332.70      72670.10      -0.1284897
      15.0000      66222.90      72670.10      -0.0887182
      18.0000      71730.20      72670.10      -0.0129332
      21.0000      62973.20      72670.10      -0.1334367
      24.0000      67795.70      72670.10      -0.0670752
      27.0000      61623.60      72670.10      -0.1520084
      30.0000      63023.00      72670.10      -0.1327515
      33.0000      52426.80      72670.10      -0.2785639
      36.0000      60261.20      72670.10      -0.1707561
      39.0000      64266.60      72670.10      -0.1156385
      42.0000      61760.00      72670.10      -0.1501314
      45.0000      68430.30      72670.10      -0.0583425
      48.0000      68430.30      72670.10      -0.0583425
      51.0000      71661.70      72670.10      -0.0138758
      54.0000      64898.60      72670.10      -0.1069417
      57.0000      57170.70      72670.10      -0.2132839
      60.0000      61205.40      72670.10      -0.1577631
      63.0000      60833.40      72670.10      -0.1628822
      66.0000      49623.20      72670.10      -0.3171438
      69.0000      45647.40      72670.10      -0.3718541
      72.0000      44869.20      72670.10      -0.3825627
      75.0000      55063.70      72670.10      -0.2422780
      78.0000      57737.40      72670.10      -0.2054857
      81.0000      55397.90      72670.10      -0.2376791
      84.0000      48257.10      72670.10      -0.3359424
      87.0000      51209.40      72670.10      -0.2953164
      90.0000      57853.00      72670.10      -0.2038949
      93.0000      55119.80      72670.10      -0.2415060
      96.0000      58789.60      72670.10      -0.1910065
      99.0000      48808.00      72670.10      -0.3283616
      102.0000      54619.20      72670.10      -0.2483947
      105.0000      45770.80      72670.10      -0.3701560
      108.0000      44976.50      72670.10      -0.3810862
      111.0000      50967.20      72670.10      -0.2986492
      114.0000      49282.80      72670.10      -0.3218280
      117.0000      49764.50      72670.10      -0.3151994
      120.0000      48150.50      72670.10      -0.3374093
      123.0000      51982.30      72670.10      -0.2846806
      126.0000      46645.60      72670.10      -0.3581180
      129.0000      52822.70      72670.10      -0.2731160
      132.0000      54106.00      72670.10      -0.2554567
      135.0000      58654.90      72670.10      -0.1928601
      138.0000      51983.70      72670.10      -0.2846613
      141.0000      58632.50      72670.10      -0.1931684
      144.0000      55646.30      72670.10      -0.2342609
      147.0000      57945.30      72670.10      -0.2026248
      150.0000      57703.10      72670.10      -0.2059577
      153.0000      52702.70      72670.10      -0.2747673
      156.0000      50447.50      72670.10      -0.3058007
      159.0000      51825.60      72670.10      -0.2868369
      162.0000      48880.80      72670.10      -0.3273598
      165.0000      49899.30      72670.10      -0.3133444
      168.0000      56606.60      72670.10      -0.2210464
      171.0000      61573.60      72670.10      -0.1526964
      174.0000      58740.90      72670.10      -0.1916767
      177.0000      54875.30      72670.10      -0.2448705
      180.0000      63574.30      72670.10      -0.1251651
      183.0000      70076.60      72670.10      -0.0356881
      186.0000      64918.60      72670.10      -0.1066664
      189.0000      64092.90      72670.10      -0.1180287
      192.0000      73071.30      72670.10      0.0055215
      195.0000      65614.70      72670.10      -0.0970875
      198.0000      65592.90      72670.10      -0.0973875
      201.0000      73776.60      72670.10      0.0152270
      204.0000      71548.60      72670.10      -0.0154322
      207.0000      76095.20      72670.10      0.0471328
      210.0000      77112.90      72670.10      0.0611372
      213.0000      79980.60      72670.10      0.1005991
      216.0000      79566.50      72670.10      0.0949008
      219.0000      80402.70      72670.10      0.1064076
      222.0000      85323.70      72670.10      0.1741246
      225.0000      91124.30      72670.10      0.2539456
      228.0000      93030.60      72670.10      0.2801779
      231.0000      96316.10      72670.10      0.3253891
      234.0000      94018.00      72670.10      0.2937653
      237.0000      100904.10      72670.10      0.3885238
      240.0000      102212.80      72670.10      0.4065326
      243.0000      93042.40      72670.10      0.2803403
      246.0000      88353.90      72670.10      0.2158227
      249.0000      130690.20      72670.10      0.7984051
      252.0000      98253.70      72670.10      0.3520521
      255.0000      100204.00      72670.10      0.3788898
      258.0000      106460.80      72670.10      0.4649886
      261.0000      99391.50      72670.10      0.3677091
      264.0000      107475.30      72670.10      0.4789489
      267.0000      105893.70      72670.10      0.4571848
      270.0000      106162.50      72670.10      0.4608837
      273.0000      107229.30      72670.10      0.4755637
      276.0000      107457.30      72670.10      0.4787012
      279.0000      103792.00      72670.10      0.4282637
      282.0000      104927.10      72670.10      0.4438836
      285.0000      99135.90      72670.10      0.3641919
      288.0000      93107.20      72670.10      0.2812320
      291.0000      102038.80      72670.10      0.4041382
      294.0000      99986.30      72670.10      0.3758941
      297.0000      88412.00      72670.10      0.2166222
      300.0000      89053.70      72670.10      0.2254525
      303.0000      90443.10      72670.10      0.2445718
      306.0000      85625.30      72670.10      0.1782749
      309.0000      90580.70      72670.10      0.2464653
      312.0000      96993.40      72670.10      0.3347093
      315.0000      93368.80      72670.10      0.2848318
      318.0000      105799.00      72670.10      0.4558816
      321.0000      94269.10      72670.10      0.2972207
      324.0000      96916.50      72670.10      0.3336511
      327.0000      90435.30      72670.10      0.2444644
      330.0000      87036.40      72670.10      0.1976928
      333.0000      86149.20      72670.10      0.1854842
      336.0000      75342.70      72670.10      0.0367778
      339.0000      71408.40      72670.10      -0.0173614
      342.0000      69737.40      72670.10      -0.0403558
      345.0000      69357.30      72670.10      -0.0455863
      348.0000      69261.70      72670.10      -0.0469018
      351.0000      68029.70      72670.10      -0.0638551
      354.0000      66481.40      72670.10      -0.0851610
      357.0000      71761.10      72670.10      -0.0125080
      360.0000      63574.30      72670.10      -0.1251651
       12     121       19.5900     48.0000      1.00000      0.00000
      0.0000      74847.60      69421.80      0.0781569
      3.0000      74015.50      69421.80      0.0661708
      6.0000      77618.20      69421.80      0.1180666
      9.0000      77323.90      69421.80      0.1138273
      12.0000      71344.20      69421.80      0.0276915
      15.0000      68144.10      69421.80      -0.0184050
      18.0000      65501.70      69421.80      -0.0564679
      21.0000      69091.00      69421.80      -0.0047651
      24.0000      60846.40      69421.80      -0.1235261
      27.0000      54774.10      69421.80      -0.2109957
      30.0000      55901.70      69421.80      -0.1947530
      33.0000      55218.40      69421.80      -0.2045957
      36.0000      45586.50      69421.80      -0.3433403
      39.0000      54831.50      69421.80      -0.2101689
      42.0000      58402.50      69421.80      -0.1587297
      45.0000      49400.80      69421.80      -0.2883965
      48.0000      54033.80      69421.80      -0.2216595
      51.0000      64543.70      69421.80      -0.0702676
      54.0000      47975.80      69421.80      -0.3089232
      57.0000      49667.40      69421.80      -0.2845562
      60.0000      50870.90      69421.80      -0.2672201
      63.0000      55419.00      69421.80      -0.2017061
      66.0000      46703.90      69421.80      -0.3272445
      69.0000      47182.00      69421.80      -0.3203576
      72.0000      34512.10      69421.80      -0.5028637
      75.0000      44335.20      69421.80      -0.3613649
      78.0000      44676.10      69421.80      -0.3564544
      81.0000      45797.10      69421.80      -0.3403067
      84.0000      38895.50      69421.80      -0.4397221
      87.0000      43623.40      69421.80      -0.3716182
      90.0000      55204.50      69421.80      -0.2047960
      93.0000      55855.50      69421.80      -0.1954185
      96.0000      67923.30      69421.80      -0.0215855
      99.0000      66524.20      69421.80      -0.0417391
      102.0000      52051.70      69421.80      -0.2502111
      105.0000      49627.30      69421.80      -0.2851338
      108.0000      49296.20      69421.80      -0.2899032
      111.0000      48507.30      69421.80      -0.3012671
      114.0000      46867.10      69421.80      -0.3248937
      117.0000      40902.10      69421.80      -0.4108177
      120.0000      43782.60      69421.80      -0.3693250
      123.0000      52441.00      69421.80      -0.2446033
      126.0000      47722.30      69421.80      -0.3125748
      129.0000      45532.70      69421.80      -0.3441153
      132.0000      45438.20      69421.80      -0.3454765
      135.0000      55630.70      69421.80      -0.1986567
      138.0000      52712.40      69421.80      -0.2406939
      141.0000      47368.00      69421.80      -0.3176784
      144.0000      48961.00      69421.80      -0.2947317
      147.0000      52379.10      69421.80      -0.2454950
      150.0000      51260.00      69421.80      -0.2616153
      153.0000      51717.20      69421.80      -0.2550295
      156.0000      48633.30      69421.80      -0.2994521
      159.0000      58337.60      69421.80      -0.1596646
      162.0000      47370.30      69421.80      -0.3176452
      165.0000      52819.20      69421.80      -0.2391555
      168.0000      53445.50      69421.80      -0.2301338
      171.0000      54477.70      69421.80      -0.2152653
      174.0000      60919.40      69421.80      -0.1224746
      177.0000      51272.30      69421.80      -0.2614381
      180.0000      58684.40      69421.80      -0.1546691
      183.0000      61441.20      69421.80      -0.1149582
      186.0000      67290.10      69421.80      -0.0307066
      189.0000      76139.60      69421.80      0.0967678
      192.0000      69292.70      69421.80      -0.0018597
      195.0000      66316.50      69421.80      -0.0447310
      198.0000      67207.50      69421.80      -0.0318964
      201.0000      62890.80      69421.80      -0.0940771
      204.0000      73014.30      69421.80      0.0517488
      207.0000      74518.00      69421.80      0.0734091
      210.0000      84150.40      69421.80      0.2121609
      213.0000      77604.80      69421.80      0.1178736
      216.0000      78117.80      69421.80      0.1252632
      219.0000      80879.80      69421.80      0.1650489
      222.0000      77098.30      69421.80      0.1105776
      225.0000      80450.50      69421.80      0.1588650
      228.0000      88434.70      69421.80      0.2738750
      231.0000      90680.40      69421.80      0.3062236
      234.0000      84042.50      69421.80      0.2106067
      237.0000      87636.90      69421.80      0.2623829
      240.0000      97268.70      69421.80      0.4011261
      243.0000      93562.20      69421.80      0.3477351
      246.0000      93573.70      69421.80      0.3479007
      249.0000      98469.10      69421.80      0.4184175
      252.0000      103464.10      69421.80      0.4903689
      255.0000      96575.20      69421.80      0.3911364
      258.0000      102877.20      69421.80      0.4819148
      261.0000      106814.20      69421.80      0.5386261
      264.0000      109328.50      69421.80      0.5748438
      267.0000      110293.00      69421.80      0.5887371
      270.0000      103406.10      69421.80      0.4895334
      273.0000      105553.40      69421.80      0.5204646
      276.0000      107447.80      69421.80      0.5477529
      279.0000      104130.80      69421.80      0.4999725
      282.0000      103737.10      69421.80      0.4943014
      285.0000      99124.90      69421.80      0.4278641
      288.0000      96072.70      69421.80      0.3838980
      291.0000      100004.20      69421.80      0.4405301
      294.0000      96985.60      69421.80      0.3970481
      297.0000      90936.60      69421.80      0.3099141
      300.0000      85596.00      69421.80      0.2329844
      303.0000      86516.30      69421.80      0.2462410
      306.0000      84153.60      69421.80      0.2122070
      309.0000      85999.60      69421.80      0.2387981
      312.0000      82719.00      69421.80      0.1915421
      315.0000      87728.70      69421.80      0.2637053
      318.0000      77798.30      69421.80      0.1206609
      321.0000      77370.10      69421.80      0.1144928
      324.0000      79659.70      69421.80      0.1474738
      327.0000      78508.40      69421.80      0.1308896
      330.0000      80775.70      69421.80      0.1635494
      333.0000      75274.30      69421.80      0.0843034
      336.0000      73614.30      69421.80      0.0603916
      339.0000      72389.80      69421.80      0.0427531
      342.0000      65834.70      69421.80      -0.0516712
      345.0000      72700.20      69421.80      0.0472243
      348.0000      81033.30      69421.80      0.1672601
      351.0000      76379.40      69421.80      0.1002220
      354.0000      73213.60      69421.80      0.0546197
      357.0000      71771.60      69421.80      0.0338481
      360.0000      58684.40      69421.80      -0.1546691
       13     121       19.5900     51.0000      1.00000      0.00000
      0.0000      65542.30      60135.60      0.0899087
      3.0000      75733.30      60135.60      0.2593758
      6.0000      83147.60      60135.60      0.3826688
      9.0000      79192.70      60135.60      0.3169024
      12.0000      67179.80      60135.60      0.1171388
      15.0000      59810.90      60135.60      -0.0053992
      18.0000      57223.70      60135.60      -0.0484220
      21.0000      52651.00      60135.60      -0.1244619
      24.0000      46077.70      60135.60      -0.2337698
      27.0000      43483.00      60135.60      -0.2769173
      30.0000      42265.50      60135.60      -0.2971633
      33.0000      52329.10      60135.60      -0.1298148
      36.0000      45688.70      60135.60      -0.2402386
      39.0000      44849.90      60135.60      -0.2541870
      42.0000      47965.00      60135.60      -0.2023858
      45.0000      45645.80      60135.60      -0.2409519
      48.0000      43082.00      60135.60      -0.2835856
      51.0000      39664.20      60135.60      -0.3404205
      54.0000      38985.10      60135.60      -0.3517133
      57.0000      39163.50      60135.60      -0.3487467
      60.0000      42902.30      60135.60      -0.2865739
      63.0000      43973.10      60135.60      -0.2687674
      66.0000      40094.90      60135.60      -0.3332584
      69.0000      45339.20      60135.60      -0.2460504
      72.0000      37538.50      60135.60      -0.3757690
      75.0000      31638.40      60135.60      -0.4738822
      78.0000      41054.70      60135.60      -0.3172978
      81.0000      39064.10      60135.60      -0.3503996
      84.0000      37259.60      60135.60      -0.3804068
      87.0000      42378.40      60135.60      -0.2952858
      90.0000      48057.30      60135.60      -0.2008509
      93.0000      46928.60      60135.60      -0.2196202
      96.0000      58441.30      60135.60      -0.0281744
      99.0000      59157.90      60135.60      -0.0162580
      102.0000      67035.10      60135.60      0.1147326
      105.0000      43232.10      60135.60      -0.2810896
      108.0000      36976.00      60135.60      -0.3851228
      111.0000      46560.90      60135.60      -0.2257347
      114.0000      32163.20      60135.60      -0.4651553
      117.0000      29523.30      60135.60      -0.5090544
      120.0000      35722.00      60135.60      -0.4059757
      123.0000      47030.20      60135.60      -0.2179306
      126.0000      39150.20      60135.60      -0.3489679
      129.0000      38947.80      60135.60      -0.3523336
      132.0000      41001.10      60135.60      -0.3181891
      135.0000      29898.20      60135.60      -0.5028202
      138.0000      45702.80      60135.60      -0.2400041
      141.0000      38581.00      60135.60      -0.3584331
      144.0000      39483.40      60135.60      -0.3434270
      147.0000      41209.50      60135.60      -0.3147236
      150.0000      45704.50      60135.60      -0.2399758
      153.0000      42116.00      60135.60      -0.2996493
      156.0000      40928.00      60135.60      -0.3194047
      159.0000      39726.90      60135.60      -0.3393779
      162.0000      43302.10      60135.60      -0.2799255
      165.0000      45642.70      60135.60      -0.2410035
      168.0000      34464.70      60135.60      -0.4268834
      171.0000      46757.20      60135.60      -0.2224704
      174.0000      47098.50      60135.60      -0.2167949
      177.0000      53133.70      60135.60      -0.1164350
      180.0000      54225.30      60135.60      -0.0982827
      183.0000      54691.00      60135.60      -0.0905385
      186.0000      65648.30      60135.60      0.0916714
      189.0000      65266.30      60135.60      0.0853191
      192.0000      60618.50      60135.60      0.0080304
      195.0000      57529.10      60135.60      -0.0433435
      198.0000      56374.50      60135.60      -0.0625434
      201.0000      62278.30      60135.60      0.0356314
      204.0000      55429.50      60135.60      -0.0782579
      207.0000      62174.80      60135.60      0.0339103
      210.0000      58611.90      60135.60      -0.0253375
      213.0000      65548.10      60135.60      0.0900052
      216.0000      67664.70      60135.60      0.1252023
      219.0000      61398.10      60135.60      0.0209944
      222.0000      68382.50      60135.60      0.1371387
      225.0000      77258.10      60135.60      0.2847318
      228.0000      68484.50      60135.60      0.1388348
      231.0000      75525.40      60135.60      0.2559186
      234.0000      79649.80      60135.60      0.3245036
      237.0000      79185.70      60135.60      0.3167860
      240.0000      80903.90      60135.60      0.3453581
      243.0000      83123.10      60135.60      0.3822614
      246.0000      82785.80      60135.60      0.3766524
      249.0000      86720.70      60135.60      0.4420862
      252.0000      84303.50      60135.60      0.4018904
      255.0000      86120.60      60135.60      0.4321071
      258.0000      90841.70      60135.60      0.5106147
      261.0000      90640.00      60135.60      0.5072606
      264.0000      88705.80      60135.60      0.4750966
      267.0000      78840.20      60135.60      0.3110407
      270.0000      90466.10      60135.60      0.5043688
      273.0000      93124.50      60135.60      0.5485756
      276.0000      102683.10      60135.60      0.7075264
      279.0000      102334.80      60135.60      0.7017345
      282.0000      99931.60      60135.60      0.6617714
      285.0000      93149.80      60135.60      0.5489963
      288.0000      91222.70      60135.60      0.5169504
      291.0000      91257.70      60135.60      0.5175324
      294.0000      81051.20      60135.60      0.3478076
      297.0000      78683.90      60135.60      0.3084415
      300.0000      79517.40      60135.60      0.3223019
      303.0000      80868.30      60135.60      0.3447661
      306.0000      80525.40      60135.60      0.3390640
      309.0000      76193.60      60135.60      0.2670301
      312.0000      67973.80      60135.60      0.1303423
      315.0000      73980.90      60135.60      0.2302349
      318.0000      64852.00      60135.60      0.0784297
      321.0000      71083.10      60135.60      0.1820472
      324.0000      68863.70      60135.60      0.1451406
      327.0000      60761.70      60135.60      0.0104117
      330.0000      71132.10      60135.60      0.1828620
      333.0000      65938.10      60135.60      0.0964905
      336.0000      65055.50      60135.60      0.0818137
      339.0000      66305.70      60135.60      0.1026034
      342.0000      62420.40      60135.60      0.0379944
      345.0000      62101.10      60135.60      0.0326847
      348.0000      66729.20      60135.60      0.1096458
      351.0000      57638.70      60135.60      -0.0415209
      354.0000      65059.20      60135.60      0.0818752
      357.0000      61835.20      60135.60      0.0282630
      360.0000      54225.30      60135.60      -0.0982827
       14     121       19.5900     54.0000      1.00000      0.00000
      0.0000      65937.00      53755.60      0.2266067
      3.0000      73951.60      53755.60      0.3757000
      6.0000      75437.10      53755.60      0.4033343
      9.0000      67354.00      53755.60      0.2529668
      12.0000      63529.60      53755.60      0.1818226
      15.0000      53353.00      53755.60      -0.0074897
      18.0000      49209.10      53755.60      -0.0845775
      21.0000      46965.20      53755.60      -0.1263201
      24.0000      44695.90      53755.60      -0.1685352
      27.0000      38120.90      53755.60      -0.2908480
      30.0000      33924.80      53755.60      -0.3689069
      33.0000      44709.10      53755.60      -0.1682897
      36.0000      36145.40      53755.60      -0.3275977
      39.0000      34775.90      53755.60      -0.3530741
      42.0000      43349.80      53755.60      -0.1935763
      45.0000      41274.70      53755.60      -0.2321788
      48.0000      38405.50      53755.60      -0.2855537
      51.0000      39176.10      53755.60      -0.2712185
      54.0000      37840.90      53755.60      -0.2960568
      57.0000      41336.80      53755.60      -0.2310236
      60.0000      27203.20      53755.60      -0.4939468
      63.0000      36801.30      53755.60      -0.3153962
      66.0000      38984.00      53755.60      -0.2747920
      69.0000      31403.10      53755.60      -0.4158173
      72.0000      30002.00      53755.60      -0.4418816
      75.0000      37492.00      53755.60      -0.3025473
      78.0000      33407.30      53755.60      -0.3785338
      81.0000      29721.40      53755.60      -0.4471015
      84.0000      25353.70      53755.60      -0.5283525
      87.0000      32975.70      53755.60      -0.3865627
      90.0000      43426.60      53755.60      -0.1921477
      93.0000      44905.40      53755.60      -0.1646380
      96.0000      45867.00      53755.60      -0.1467496
      99.0000      45989.90      53755.60      -0.1444633
      102.0000      40459.00      53755.60      -0.2473531
      105.0000      41739.80      53755.60      -0.2235267
      108.0000      35459.70      53755.60      -0.3403536
      111.0000      36734.30      53755.60      -0.3166426
      114.0000      36734.30      53755.60      -0.3166426
      117.0000      32886.90      53755.60      -0.3882146
      120.0000      36473.60      53755.60      -0.3214923
      123.0000      33362.00      53755.60      -0.3793765
      126.0000      31863.90      53755.60      -0.4072452
      129.0000      34503.20      53755.60      -0.3581471
      132.0000      36927.20      53755.60      -0.3130541
      135.0000      37648.20      53755.60      -0.2996415
      138.0000      39273.10      53755.60      -0.2694140
      141.0000      44726.50      53755.60      -0.1679660
      144.0000      37221.40      53755.60      -0.3075812
      147.0000      41040.30      53755.60      -0.2365393
      150.0000      36452.30      53755.60      -0.3218885
      153.0000      35092.60      53755.60      -0.3471826
      156.0000      38764.90      53755.60      -0.2788679
      159.0000      42194.80      53755.60      -0.2150625
      162.0000      42460.90      53755.60      -0.2101123
      165.0000      36328.60      53755.60      -0.3241897
      168.0000      34830.30      53755.60      -0.3520621
      171.0000      40749.20      53755.60      -0.2419545
      174.0000      45590.30      53755.60      -0.1518970
      177.0000      43766.70      53755.60      -0.1858209
      180.0000      43173.20      53755.60      -0.1968616
      183.0000      59955.60      53755.60      0.1153365
      186.0000      60979.10      53755.60      0.1343764
      189.0000      55300.30      53755.60      0.0287353
      192.0000      59013.70      53755.60      0.0978146
      195.0000      52803.70      53755.60      -0.0177082
      198.0000      55614.60      53755.60      0.0345821
      201.0000      67018.90      53755.60      0.2467330
      204.0000      54281.10      53755.60      0.0097754
      207.0000      48787.30      53755.60      -0.0924241
      210.0000      54790.30      53755.60      0.0192479
      213.0000      57458.80      53755.60      0.0688893
      216.0000      66270.60      53755.60      0.2328126
      219.0000      60428.70      53755.60      0.1241374
      222.0000      68977.70      53755.60      0.2831720
      225.0000      68977.70      53755.60      0.2831720
      228.0000      68977.70      53755.60      0.2831720
      231.0000      72214.40      53755.60      0.3433834
      234.0000      68475.70      53755.60      0.2738334
      237.0000      75289.00      53755.60      0.4005792
      240.0000      79463.40      53755.60      0.4782344
      243.0000      66636.40      53755.60      0.2396175
      246.0000      77501.10      53755.60      0.4417303
      249.0000      82751.20      53755.60      0.5393964
      252.0000      81279.00      53755.60      0.5120095
      255.0000      78028.60      53755.60      0.4515432
      258.0000      78530.60      53755.60      0.4608818
      261.0000      86792.00      53755.60      0.6145662
      264.0000      81465.30      53755.60      0.5154752
      267.0000      86353.20      53755.60      0.6064033
      270.0000      87489.20      53755.60      0.6275360
      273.0000      93173.10      53755.60      0.7332719
      276.0000      94566.60      53755.60      0.7591948
      279.0000      98754.00      53755.60      0.8370918
      282.0000      91134.40      53755.60      0.6953466
      285.0000      88810.90      53755.60      0.6521232
      288.0000      83037.40      53755.60      0.5447205
      291.0000      76294.50      53755.60      0.4192843
      294.0000      70737.10      53755.60      0.3159016
      297.0000      69054.60      53755.60      0.2846025
      300.0000      71087.70      53755.60      0.3224237
      303.0000      65040.80      53755.60      0.2099350
      306.0000      66238.30      53755.60      0.2322117
      309.0000      55653.20      53755.60      0.0353002
      312.0000      56358.50      53755.60      0.0484207
      315.0000      61080.50      53755.60      0.1362627
      318.0000      63027.90      53755.60      0.1724896
      321.0000      64126.30      53755.60      0.1929228
      324.0000      60822.90      53755.60      0.1314706
      327.0000      61646.30      53755.60      0.1467881
      330.0000      59745.00      53755.60      0.1114188
      333.0000      55247.40      53755.60      0.0277512
      336.0000      54791.40      53755.60      0.0192684
      339.0000      51298.40      53755.60      -0.0457109
      342.0000      50492.60      53755.60      -0.0607009
      345.0000      44341.80      53755.60      -0.1751225
      348.0000      44294.50      53755.60      -0.1760024
      351.0000      54160.80      53755.60      0.0075375
      354.0000      55467.20      53755.60      0.0318401
      357.0000      18802.70      53755.60      -0.6502189
      360.0000      43173.20      53755.60      -0.1968616
       15     121       19.5900     57.0000      1.00000      0.00000
      0.0000      51212.00      45642.60      0.1220212
      3.0000      51239.60      45642.60      0.1226259
      6.0000      55802.60      45642.60      0.2225982
      9.0000      55802.60      45642.60      0.2225982
      12.0000      46995.60      45642.60      0.0296426
      15.0000      45826.00      45642.60      0.0040175
      18.0000      46154.70      45642.60      0.0112191
      21.0000      40092.40      45642.60      -0.1216019
      24.0000      38937.30      45642.60      -0.1469094
      27.0000      36347.70      45642.60      -0.2036458
      30.0000      35975.10      45642.60      -0.2118093
      33.0000      37084.70      45642.60      -0.1874986
      36.0000      31142.90      45642.60      -0.3176796
      39.0000      34327.50      45642.60      -0.2479071
      42.0000      36602.30      45642.60      -0.1980677
      45.0000      37104.70      45642.60      -0.1870605
      48.0000      41443.10      45642.60      -0.0920090
      51.0000      39073.80      45642.60      -0.1439188
      54.0000      37500.70      45642.60      -0.1783844
      57.0000      35231.00      45642.60      -0.2281120
      60.0000      37273.30      45642.60      -0.1833665
      63.0000      37575.20      45642.60      -0.1767521
      66.0000      29086.60      45642.60      -0.3627317
      69.0000      23912.50      45642.60      -0.4760929
      72.0000      32642.60      45642.60      -0.2848221
      75.0000      33727.70      45642.60      -0.2610483
      78.0000      33861.30      45642.60      -0.2581212
      81.0000      30307.60      45642.60      -0.3359804
      84.0000      32668.90      45642.60      -0.2842459
      87.0000      36377.30      45642.60      -0.2029973
      90.0000      34888.60      45642.60      -0.2356138
      93.0000      30000.30      45642.60      -0.3427132
      96.0000      35708.40      45642.60      -0.2176525
      99.0000      40230.60      45642.60      -0.1185740
      102.0000      34060.00      45642.60      -0.2537678
      105.0000      29335.90      45642.60      -0.3572698
      108.0000      35044.20      45642.60      -0.2322047
      111.0000      35620.90      45642.60      -0.2195695
      114.0000      26576.40      45642.60      -0.4177286
      117.0000      33363.00      45642.60      -0.2690386
      120.0000      33936.30      45642.60      -0.2564780
      123.0000      35603.80      45642.60      -0.2199442
      126.0000      27100.30      45642.60      -0.4062503
      129.0000      32437.40      45642.60      -0.2893179
      132.0000      38163.40      45642.60      -0.1638650
      135.0000      37837.90      45642.60      -0.1709965
      138.0000      38739.00      45642.60      -0.1512540
      141.0000      39376.70      45642.60      -0.1372824
      144.0000      37066.00      45642.60      -0.1879084
      147.0000      37819.60      45642.60      -0.1713975
      150.0000      33595.60      45642.60      -0.2639425
      153.0000      31762.30      45642.60      -0.3041089
      156.0000      31591.80      45642.60      -0.3078445
      159.0000      35068.30      45642.60      -0.2316766
      162.0000      32171.10      45642.60      -0.2951524
      165.0000      36067.80      45642.60      -0.2097783
      168.0000      36278.20      45642.60      -0.2051685
      171.0000      35379.00      45642.60      -0.2248694
      174.0000      37877.40      45642.60      -0.1701311
      177.0000      40413.40      45642.60      -0.1145690
      180.0000      37977.50      45642.60      -0.1679380
      183.0000      41434.50      45642.60      -0.0921974
      186.0000      38195.20      45642.60      -0.1631683
      189.0000      41881.10      45642.60      -0.0824127
      192.0000      46483.00      45642.60      0.0184119
      195.0000      42973.90      45642.60      -0.0584702
      198.0000      44059.90      45642.60      -0.0346766
      201.0000      43682.00      45642.60      -0.0429561
      204.0000      41648.80      45642.60      -0.0875022
      207.0000      40450.90      45642.60      -0.1137474
      210.0000      44817.00      45642.60      -0.0180890
      213.0000      45884.00      45642.60      0.0052882
      216.0000      49322.80      45642.60      0.0806301
      219.0000      44722.90      45642.60      -0.0201507
      222.0000      52213.20      45642.60      0.1439568
      225.0000      53174.60      45642.60      0.1650205
      228.0000      57027.80      45642.60      0.2494415
      231.0000      59339.50      45642.60      0.3000894
      234.0000      61235.80      45642.60      0.3416360
      237.0000      64106.30      45642.60      0.4045268
      240.0000      56975.10      45642.60      0.2482869
      243.0000      60400.70      45642.60      0.3233396
      246.0000      62298.90      45642.60      0.3649279
      249.0000      62635.80      45642.60      0.3723091
      252.0000      62022.90      45642.60      0.3588809
      255.0000      67181.40      45642.60      0.4719002
      258.0000      67436.00      45642.60      0.4774783
      261.0000      64822.70      45642.60      0.4202227
      264.0000      63933.60      45642.60      0.4007431
      267.0000      70734.80      45642.60      0.5497529
      270.0000      70622.00      45642.60      0.5472815
      273.0000      62659.30      45642.60      0.3728240
      276.0000      69102.70      45642.60      0.5139946
      279.0000      70544.30      45642.60      0.5455792
      282.0000      68195.00      45642.60      0.4941075
      285.0000      65159.10      45642.60      0.4275930
      288.0000      63568.10      45642.60      0.3927352
      291.0000      68788.90      45642.60      0.5071195
      294.0000      57795.20      45642.60      0.2662548
      297.0000      52081.20      45642.60      0.1410648
      300.0000      54677.60      45642.60      0.1979502
      303.0000      55355.30      45642.60      0.2127982
      306.0000      56068.90      45642.60      0.2284327
      309.0000      54600.70      45642.60      0.1962654
      312.0000      52181.30      45642.60      0.1432579
      315.0000      49692.20      45642.60      0.0887234
      318.0000      55732.90      45642.60      0.2210711
      321.0000      56291.40      45642.60      0.2333075
      324.0000      64013.40      45642.60      0.4024914
      327.0000      52140.50      45642.60      0.1423640
      330.0000      46477.60      45642.60      0.0182936
      333.0000      46851.10      45642.60      0.0264767
      336.0000      44605.20      45642.60      -0.0227294
      339.0000      47733.70      45642.60      0.0458139
      342.0000      46527.90      45642.60      0.0193956
      345.0000      45915.40      45642.60      0.0059762
      348.0000      47888.10      45642.60      0.0491967
      351.0000      52062.00      45642.60      0.1406441
      354.0000      50374.20      45642.60      0.1036655
      357.0000      55895.10      45642.60      0.2246248
      360.0000      37977.50      45642.60      -0.1679380
       16     121       19.5900     60.0000      1.00000      0.00000
      0.0000      45059.80      42412.40      0.0624207
      3.0000      43844.40      42412.40      0.0337640
      6.0000      42233.50      42412.40      -0.0042179
      9.0000      36971.90      42412.40      -0.1282760
      12.0000      35012.30      42412.40      -0.1744794
      15.0000      36824.50      42412.40      -0.1317514
      18.0000      40653.90      42412.40      -0.0414617
      21.0000      39858.20      42412.40      -0.0602227
      24.0000      35708.30      42412.40      -0.1580691
      27.0000      39545.50      42412.40      -0.0675956
      30.0000      33735.80      42412.40      -0.2045768
      33.0000      31972.90      42412.40      -0.2461425
      36.0000      29980.10      42412.40      -0.2931287
      39.0000      29212.10      42412.40      -0.3112366
      42.0000      36314.20      42412.40      -0.1437832
      45.0000      33547.00      42412.40      -0.2090283
      48.0000      38422.80      42412.40      -0.0940666
      51.0000      37749.80      42412.40      -0.1099346
      54.0000      35611.60      42412.40      -0.1603491
      57.0000      36009.30      42412.40      -0.1509722
      60.0000      36993.60      42412.40      -0.1277643
      63.0000      33056.00      42412.40      -0.2206051
      66.0000      28511.20      42412.40      -0.3277625
      69.0000      28562.90      42412.40      -0.3265435
      72.0000      31248.60      42412.40      -0.2632200
      75.0000      24703.20      42412.40      -0.4175476
      78.0000      24703.20      42412.40      -0.4175476
      81.0000      30478.80      42412.40      -0.2813704
      84.0000      33649.40      42412.40      -0.2066139
      87.0000      24997.90      42412.40      -0.4105991
      90.0000      26495.30      42412.40      -0.3752934
      93.0000      32434.20      42412.40      -0.2352659
      96.0000      31598.80      42412.40      -0.2549630
      99.0000      28442.00      42412.40      -0.3293941
      102.0000      26851.70      42412.40      -0.3668902
      105.0000      35086.90      42412.40      -0.1727205
      108.0000      32861.50      42412.40      -0.2251910
      111.0000      35741.60      42412.40      -0.1572840
      114.0000      25853.70      42412.40      -0.3904211
      117.0000      25571.60      42412.40      -0.3970724
      120.0000      30906.80      42412.40      -0.2712790
      123.0000      32488.50      42412.40      -0.2339856
      126.0000      26929.90      42412.40      -0.3650464
      129.0000      27328.40      42412.40      -0.3556506
      132.0000      27366.50      42412.40      -0.3547522
      135.0000      36111.50      42412.40      -0.1485625
      138.0000      33686.40      42412.40      -0.2057415
      141.0000      36341.10      42412.40      -0.1431490
      144.0000      34084.00      42412.40      -0.1963669
      147.0000      32494.30      42412.40      -0.2338489
      150.0000      38812.20      42412.40      -0.0848853
      153.0000      21170.80      42412.40      -0.5008345
      156.0000      22870.50      42412.40      -0.4607590
      159.0000      32720.60      42412.40      -0.2285132
      162.0000      32720.60      42412.40      -0.2285132
      165.0000      33096.70      42412.40      -0.2196455
      168.0000      32806.20      42412.40      -0.2264949
      171.0000      33359.10      42412.40      -0.2134586
      174.0000      36022.10      42412.40      -0.1506704
      177.0000      35561.90      42412.40      -0.1615210
      180.0000      31997.60      42412.40      -0.2455601
      183.0000      28642.60      42412.40      -0.3246643
      186.0000      32556.00      42412.40      -0.2323941
      189.0000      37946.00      42412.40      -0.1053086
      192.0000      41551.60      42412.40      -0.0202957
      195.0000      38350.50      42412.40      -0.0957713
      198.0000      36590.00      42412.40      -0.1372804
      201.0000      53653.50      42412.40      0.2650431
      204.0000      35253.70      42412.40      -0.1687877
      207.0000      41696.20      42412.40      -0.0168863
      210.0000      39740.10      42412.40      -0.0630073
      213.0000      51778.10      42412.40      0.2208249
      216.0000      46725.20      42412.40      0.1016875
      219.0000      46867.90      42412.40      0.1050521
      222.0000      54399.80      42412.40      0.2826393
      225.0000      52899.70      42412.40      0.2472700
      228.0000      55592.10      42412.40      0.3107514
      231.0000      55352.80      42412.40      0.3051092
      234.0000      64229.60      42412.40      0.5144065
      237.0000      64771.10      42412.40      0.5271740
      240.0000      66399.20      42412.40      0.5655614
      243.0000      53664.70      42412.40      0.2653071
      246.0000      58237.90      42412.40      0.3731341
      249.0000      63697.40      42412.40      0.5018583
      252.0000      62264.20      42412.40      0.4680663
      255.0000      64401.00      42412.40      0.5184478
      258.0000      66047.70      42412.40      0.5572737
      261.0000      69232.40      42412.40      0.6323626
      264.0000      69353.50      42412.40      0.6352179
      267.0000      67040.20      42412.40      0.5806749
      270.0000      61078.90      42412.40      0.4401193
      273.0000      68518.80      42412.40      0.6155373
      276.0000      69972.40      42412.40      0.6498104
      279.0000      69153.60      42412.40      0.6305047
      282.0000      63442.90      42412.40      0.4958577
      285.0000      62932.90      42412.40      0.4838329
      288.0000      64538.30      42412.40      0.5216851
      291.0000      61211.70      42412.40      0.4432504
      294.0000      62333.00      42412.40      0.4696885
      297.0000      54344.20      42412.40      0.2813284
      300.0000      54035.10      42412.40      0.2740404
      303.0000      51122.10      42412.40      0.2053577
      306.0000      53943.30      42412.40      0.2718760
      309.0000      49010.10      42412.40      0.1555609
      312.0000      50122.50      42412.40      0.1817891
      315.0000      49970.00      42412.40      0.1781934
      318.0000      46243.00      42412.40      0.0903182
      321.0000      50575.00      42412.40      0.1924581
      324.0000      51313.10      42412.40      0.2098611
      327.0000      50236.40      42412.40      0.1844746
      330.0000      46631.20      42412.40      0.0994712
      333.0000      43041.40      42412.40      0.0148308
      336.0000      41089.60      42412.40      -0.0311888
      339.0000      37350.40      42412.40      -0.1193517
      342.0000      41145.20      42412.40      -0.0298778
      345.0000      42701.00      42412.40      0.0068049
      348.0000      41510.10      42412.40      -0.0212742
      351.0000      41153.50      42412.40      -0.0296821
      354.0000      45223.60      42412.40      0.0662828
      357.0000      41623.10      42412.40      -0.0186099
      360.0000      31997.60      42412.40      -0.2455601
       17     121       19.5900     63.0000      1.00000      0.00000
      0.0000      35480.20      37997.70      -0.0662538
      3.0000      34450.20      37997.70      -0.0933607
      6.0000      38628.30      37997.70      0.0165960
      9.0000      34527.10      37997.70      -0.0913369
      12.0000      32070.40      37997.70      -0.1559908
      15.0000      32145.40      37997.70      -0.1540170
      18.0000      36693.30      37997.70      -0.0343282
      21.0000      33384.10      37997.70      -0.1214177
      24.0000      34438.00      37997.70      -0.0936818
      27.0000      34597.40      37997.70      -0.0894868
      30.0000      35372.50      37997.70      -0.0690882
      33.0000      36582.50      37997.70      -0.0372441
      36.0000      30229.50      37997.70      -0.2044385
      39.0000      28910.00      37997.70      -0.2391643
      42.0000      28948.90      37997.70      -0.2381405
      45.0000      31844.60      37997.70      -0.1619333
      48.0000      33033.20      37997.70      -0.1306524
      51.0000      55708.20      37997.70      0.4660944
      54.0000      36093.80      37997.70      -0.0501054
      57.0000      30940.00      37997.70      -0.1857400
      60.0000      26713.70      37997.70      -0.2969652
      63.0000      26614.20      37997.70      -0.2995838
      66.0000      28696.40      37997.70      -0.2447857
      69.0000      28712.10      37997.70      -0.2443725
      72.0000      31334.80      37997.70      -0.1753499
      75.0000      24809.90      37997.70      -0.3470682
      78.0000      24627.40      37997.70      -0.3518711
      81.0000      23686.00      37997.70      -0.3766463
      84.0000      28766.20      37997.70      -0.2429487
      87.0000      23915.70      37997.70      -0.3706012
      90.0000      22098.70      37997.70      -0.4184199
      93.0000      20988.80      37997.70      -0.4476296
      96.0000      26488.90      37997.70      -0.3028813
      99.0000      28923.60      37997.70      -0.2388064
      102.0000      22419.80      37997.70      -0.4099694
      105.0000      21363.70      37997.70      -0.4377632
      108.0000      18929.50      37997.70      -0.5018250
      111.0000      21763.10      37997.70      -0.4272520
      114.0000      27272.10      37997.70      -0.2822695
      117.0000      25533.50      37997.70      -0.3280250
      120.0000      28536.60      37997.70      -0.2489912
      123.0000      28249.60      37997.70      -0.2565443
      126.0000      27394.40      37997.70      -0.2790509
      129.0000      25863.50      37997.70      -0.3193402
      132.0000      21966.70      37997.70      -0.4218938
      135.0000      28069.80      37997.70      -0.2612762
      138.0000      30564.90      37997.70      -0.1956116
      141.0000      30873.40      37997.70      -0.1874927
      144.0000      29561.50      37997.70      -0.2220185
      147.0000      27151.70      37997.70      -0.2854382
      150.0000      28946.00      37997.70      -0.2382169
      153.0000      23864.30      37997.70      -0.3719539
      156.0000      27351.70      37997.70      -0.2801747
      159.0000      29382.80      37997.70      -0.2267214
      162.0000      32853.60      37997.70      -0.1353790
      165.0000      30765.00      37997.70      -0.1903455
      168.0000      27467.60      37997.70      -0.2771245
      171.0000      29158.00      37997.70      -0.2326376
      174.0000      27835.80      37997.70      -0.2674344
      177.0000      30445.40      37997.70      -0.1987566
      180.0000      28213.40      37997.70      -0.2574970
      183.0000      28867.70      37997.70      -0.2402775
      186.0000      29395.70      37997.70      -0.2263819
      189.0000      28265.50      37997.70      -0.2561258
      192.0000      30920.60      37997.70      -0.1862505
      195.0000      27509.60      37997.70      -0.2760192
      198.0000      32689.50      37997.70      -0.1396977
      201.0000      35093.50      37997.70      -0.0764307
      204.0000      37807.30      37997.70      -0.0050106
      207.0000      36487.80      37997.70      -0.0397364
      210.0000      40442.10      37997.70      0.0643305
      213.0000      37607.60      37997.70      -0.0102662
      216.0000      41225.00      37997.70      0.0849344
      219.0000      47833.30      37997.70      0.2588476
      222.0000      37863.60      37997.70      -0.0035289
      225.0000      46227.50      37997.70      0.2165871
      228.0000      44390.50      37997.70      0.1682420
      231.0000      48745.00      37997.70      0.2828411
      234.0000      49714.20      37997.70      0.3083479
      237.0000      59796.70      37997.70      0.5736930
      240.0000      50853.10      37997.70      0.3383208
      243.0000      54454.50      37997.70      0.4331002
      246.0000      53259.10      37997.70      0.4016404
      249.0000      53174.10      37997.70      0.3994035
      252.0000      53050.50      37997.70      0.3961506
      255.0000      58723.30      37997.70      0.5454439
      258.0000      59416.70      37997.70      0.5636924
      261.0000      57141.30      37997.70      0.5038098
      264.0000      59288.30      37997.70      0.5603132
      267.0000      60787.90      37997.70      0.5997788
      270.0000      56838.50      37997.70      0.4958409
      273.0000      60420.80      37997.70      0.5901177
      276.0000      59405.70      37997.70      0.5634029
      279.0000      60230.10      37997.70      0.5850990
      282.0000      62353.40      37997.70      0.6409787
      285.0000      58175.90      37997.70      0.5310378
      288.0000      50853.60      37997.70      0.3383340
      291.0000      57576.00      37997.70      0.5152500
      294.0000      53545.30      37997.70      0.4091725
      297.0000      55737.50      37997.70      0.4668655
      300.0000      53131.90      37997.70      0.3982929
      303.0000      49652.20      37997.70      0.3067162
      306.0000      50429.70      37997.70      0.3271780
      309.0000      46232.30      37997.70      0.2167134
      312.0000      47868.00      37997.70      0.2597608
      315.0000      44766.40      37997.70      0.1781348
      318.0000      72981.40      37997.70      0.9206799
      321.0000      46671.80      37997.70      0.2282799
      324.0000      47744.50      37997.70      0.2565106
      327.0000      43069.40      37997.70      0.1334741
      330.0000      40262.80      37997.70      0.0596118
      333.0000      38863.50      37997.70      0.0227858
      336.0000      40319.00      37997.70      0.0610908
      339.0000      40174.60      37997.70      0.0572906
      342.0000      44306.40      37997.70      0.1660288
      345.0000      40349.80      37997.70      0.0619014
      348.0000      35616.20      37997.70      -0.0626746
      351.0000      41022.90      37997.70      0.0796156
      354.0000      35124.40      37997.70      -0.0756175
      357.0000      32716.00      37997.70      -0.1390003
      360.0000      28213.40      37997.70      -0.2574970
       18     121       19.5900     66.0000      1.00000      0.00000
      0.0000      27196.50      31931.60      -0.1482896
      3.0000      31254.70      31931.60      -0.0211993
      6.0000      35385.70      31931.60      0.1081708
      9.0000      35831.70      31931.60      0.1221382
      12.0000      27587.70      31931.60      -0.1360384
      15.0000      24401.10      31931.60      -0.2358329
      18.0000      27361.10      31931.60      -0.1431349
      21.0000      27908.70      31931.60      -0.1259857
      24.0000      30903.70      31931.60      -0.0321916
      27.0000      32721.10      31931.60      0.0247238
      30.0000      33692.30      31931.60      0.0551388
      33.0000      34187.60      31931.60      0.0706500
      36.0000      32908.20      31931.60      0.0305832
      39.0000      25869.70      31931.60      -0.1898409
      42.0000      24065.90      31931.60      -0.2463303
      45.0000      26770.20      31931.60      -0.1616400
      48.0000      26501.40      31931.60      -0.1700580
      51.0000      27389.10      31931.60      -0.1422580
      54.0000      27591.10      31931.60      -0.1359320
      57.0000      27928.80      31931.60      -0.1253562
      60.0000      20187.30      31931.60      -0.3677961
      63.0000      23748.60      31931.60      -0.2562672
      66.0000      28775.30      31931.60      -0.0988465
      69.0000      26097.50      31931.60      -0.1827069
      72.0000      27957.00      31931.60      -0.1244731
      75.0000      23011.30      31931.60      -0.2793572
      78.0000      19840.70      31931.60      -0.3786506
      81.0000      23866.90      31931.60      -0.2525624
      84.0000      17318.70      31931.60      -0.4576318
      87.0000      20002.60      31931.60      -0.3735803
      90.0000      17227.00      31931.60      -0.4605036
      93.0000      20834.30      31931.60      -0.3475341
      96.0000      25211.90      31931.60      -0.2104412
      99.0000      25987.20      31931.60      -0.1861612
      102.0000      21611.90      31931.60      -0.3231820
      105.0000      26947.00      31931.60      -0.1561032
      108.0000      15991.90      31931.60      -0.4991831
      111.0000      20558.20      31931.60      -0.3561807
      114.0000      21848.00      31931.60      -0.3157881
      117.0000      21633.20      31931.60      -0.3225150
      120.0000      27036.40      31931.60      -0.1533035
      123.0000      24432.30      31931.60      -0.2348558
      126.0000      27810.80      31931.60      -0.1290516
      129.0000      23489.70      31931.60      -0.2643751
      132.0000      19827.20      31931.60      -0.3790733
      135.0000      18602.50      31931.60      -0.4174272
      138.0000      20485.50      31931.60      -0.3584574
      141.0000      24961.30      31931.60      -0.2182892
      144.0000      24201.40      31931.60      -0.2420869
      147.0000      22402.70      31931.60      -0.2984166
      150.0000      22270.80      31931.60      -0.3025473
      153.0000      22003.10      31931.60      -0.3109309
      156.0000      22605.20      31931.60      -0.2920750
      159.0000      28427.80      31931.60      -0.1097291
      162.0000      29238.20      31931.60      -0.0843499
      165.0000      26792.10      31931.60      -0.1609542
      168.0000      23027.30      31931.60      -0.2788561
      171.0000      23361.30      31931.60      -0.2683962
      174.0000      20681.90      31931.60      -0.3523068
      177.0000      19953.60      31931.60      -0.3751149
      180.0000      21808.40      31931.60      -0.3170283
      183.0000      23604.90      31931.60      -0.2607674
      186.0000      24846.50      31931.60      -0.2218844
      189.0000      26602.30      31931.60      -0.1668981
      192.0000      26655.00      31931.60      -0.1652477
      195.0000      24170.90      31931.60      -0.2430421
      198.0000      26539.10      31931.60      -0.1688774
      201.0000      30755.60      31931.60      -0.0368296
      204.0000      32236.80      31931.60      0.0095570
      207.0000      28809.00      31931.60      -0.0977911
      210.0000      31291.60      31931.60      -0.0200437
      213.0000      35022.80      31931.60      0.0968059
      216.0000      34051.40      31931.60      0.0663847
      219.0000      34156.30      31931.60      0.0696698
      222.0000      30742.50      31931.60      -0.0372399
      225.0000      36496.70      31931.60      0.1429639
      228.0000      38435.40      31931.60      0.2036780
      231.0000      52930.20      31931.60      0.6576104
      234.0000      42721.10      31931.60      0.3378929
      237.0000      38447.90      31931.60      0.2040695
      240.0000      40524.90      31931.60      0.2691147
      243.0000      38082.20      31931.60      0.1926169
      246.0000      45035.40      31931.60      0.4103696
      249.0000      51684.50      31931.60      0.6185989
      252.0000      53146.70      31931.60      0.6643905
      255.0000      48990.80      31931.60      0.5342405
      258.0000      49073.10      31931.60      0.5368179
      261.0000      51158.70      31931.60      0.6021325
      264.0000      46702.60      31931.60      0.4625812
      267.0000      48556.00      31931.60      0.5206239
      270.0000      47098.30      31931.60      0.4749733
      273.0000      49332.80      31931.60      0.5449509
      276.0000      53089.20      31931.60      0.6625898
      279.0000      47381.40      31931.60      0.4838391
      282.0000      46705.30      31931.60      0.4626657
      285.0000      41659.90      31931.60      0.3046594
      288.0000      42347.90      31931.60      0.3262054
      291.0000      42991.90      31931.60      0.3463735
      294.0000      46576.10      31931.60      0.4586196
      297.0000      47473.60      31931.60      0.4867265
      300.0000      45467.50      31931.60      0.4239017
      303.0000      46303.60      31931.60      0.4500857
      306.0000      45849.60      31931.60      0.4358679
      309.0000      44159.30      31931.60      0.3829329
      312.0000      36423.70      31931.60      0.1406778
      315.0000      35786.10      31931.60      0.1207101
      318.0000      40867.60      31931.60      0.2798470
      321.0000      35637.60      31931.60      0.1160596
      324.0000      39772.10      31931.60      0.2455393
      327.0000      36194.00      31931.60      0.1334843
      330.0000      34148.80      31931.60      0.0694349
      333.0000      37796.70      31931.60      0.1836759
      336.0000      31515.00      31931.60      -0.0130475
      339.0000      31515.00      31931.60      -0.0130475
      342.0000      40775.80      31931.60      0.2769721
      345.0000      37055.80      31931.60      0.1604732
      348.0000      39182.00      31931.60      0.2270592
      351.0000      32735.40      31931.60      0.0251716
      354.0000      27489.90      31931.60      -0.1391012
      357.0000      27460.40      31931.60      -0.1400251
      360.0000      21808.40      31931.60      -0.3170283
       19     121       19.5900     69.0000      1.00000      0.00000
      0.0000      29908.20      26243.20      0.1396551
      3.0000      22756.50      26243.20      -0.1328612
      6.0000      30247.50      26243.20      0.1525842
      9.0000      28810.00      26243.20      0.0978081
      12.0000      25482.30      26243.20      -0.0289943
      15.0000      19623.90      26243.20      -0.2522292
      18.0000      22914.00      26243.20      -0.1268596
      21.0000      23653.00      26243.20      -0.0986999
      24.0000      22898.70      26243.20      -0.1274426
      27.0000      27853.30      26243.20      0.0613529
      30.0000      28722.20      26243.20      0.0944625
      33.0000      31401.20      26243.20      0.1965460
      36.0000      25398.30      26243.20      -0.0321951
      39.0000      19829.60      26243.20      -0.2443910
      42.0000      18307.20      26243.20      -0.3024022
      45.0000      17695.40      26243.20      -0.3257149
      48.0000      25522.70      26243.20      -0.0274548
      51.0000      21593.70      26243.20      -0.1771698
      54.0000      18656.00      26243.20      -0.2891112
      57.0000      20310.50      26243.20      -0.2260663
      60.0000      16779.60      26243.20      -0.3606116
      63.0000      18080.60      26243.20      -0.3110368
      66.0000      25901.50      26243.20      -0.0130206
      69.0000      26502.50      26243.20      0.0098806
      72.0000      25069.20      26243.20      -0.0447355
      75.0000      24108.70      26243.20      -0.0813354
      78.0000      16836.60      26243.20      -0.3584396
      81.0000      16294.90      26243.20      -0.3790811
      84.0000      11378.20      26243.20      -0.5664325
      87.0000      15926.80      26243.20      -0.3931076
      90.0000      16444.10      26243.20      -0.3733958
      93.0000      18091.00      26243.20      -0.3106405
      96.0000      19864.20      26243.20      -0.2430726
      99.0000      22238.50      26243.20      -0.1525996
      102.0000      20194.90      26243.20      -0.2304712
      105.0000      19453.40      26243.20      -0.2587261
      108.0000      13756.80      26243.20      -0.4757957
      111.0000      15091.50      26243.20      -0.4249368
      114.0000      19650.10      26243.20      -0.2512309
      117.0000      20900.30      26243.20      -0.2035919
      120.0000      23072.90      26243.20      -0.1208047
      123.0000      30966.20      26243.20      0.1799703
      126.0000      23494.70      26243.20      -0.1047320
      129.0000      18904.30      26243.20      -0.2796497
      132.0000      16095.40      26243.20      -0.3866831
      135.0000      17020.50      26243.20      -0.3514321
      138.0000      16097.90      26243.20      -0.3865878
      141.0000      16390.20      26243.20      -0.3754497
      144.0000      17262.10      26243.20      -0.3422259
      147.0000      13639.80      26243.20      -0.4802540
      150.0000      11895.70      26243.20      -0.5467131
      153.0000      18170.80      26243.20      -0.3075997
      156.0000      24375.30      26243.20      -0.0711766
      159.0000      24375.30      26243.20      -0.0711766
      162.0000      21264.30      26243.20      -0.1897216
      165.0000      21538.20      26243.20      -0.1792846
      168.0000      18228.80      26243.20      -0.3053897
      171.0000      17287.50      26243.20      -0.3412580
      174.0000      16282.90      26243.20      -0.3795384
      177.0000      16321.20      26243.20      -0.3780790
      180.0000      18031.70      26243.20      -0.3129002
      183.0000      22249.90      26243.20      -0.1521652
      186.0000      19707.30      26243.20      -0.2490513
      189.0000      21908.50      26243.20      -0.1651743
      192.0000      19334.60      26243.20      -0.2632530
      195.0000      20958.10      26243.20      -0.2013894
      198.0000      21753.60      26243.20      -0.1710768
      201.0000      23136.50      26243.20      -0.1183812
      204.0000      22815.20      26243.20      -0.1306244
      207.0000      23573.40      26243.20      -0.1017331
      210.0000      25683.40      26243.20      -0.0213313
      213.0000      29519.80      26243.20      0.1248551
      216.0000      30561.10      26243.20      0.1645339
      219.0000      32542.20      26243.20      0.2400240
      222.0000      27399.10      26243.20      0.0440456
      225.0000      31052.20      26243.20      0.1832474
      228.0000      27087.30      26243.20      0.0321644
      231.0000      28014.00      26243.20      0.0674764
      234.0000      29663.50      26243.20      0.1303308
      237.0000      29867.10      26243.20      0.1380890
      240.0000      31353.10      26243.20      0.1947132
      243.0000      30356.00      26243.20      0.1567186
      246.0000      33488.80      26243.20      0.2760943
      249.0000      39096.10      26243.20      0.4897610
      252.0000      42409.60      26243.20      0.6160223
      255.0000      42709.10      26243.20      0.6274348
      258.0000      40344.10      26243.20      0.5373162
      261.0000      39594.40      26243.20      0.5087488
      264.0000      39929.10      26243.20      0.5215026
      267.0000      40448.60      26243.20      0.5412982
      270.0000      39722.70      26243.20      0.5136377
      273.0000      38409.80      26243.20      0.4636095
      276.0000      42354.40      26243.20      0.6139189
      279.0000      41973.30      26243.20      0.5993970
      282.0000      41530.90      26243.20      0.5825393
      285.0000      36878.70      26243.20      0.4052668
      288.0000      35740.20      26243.20      0.3618841
      291.0000      36813.70      26243.20      0.4027899
      294.0000      38282.30      26243.20      0.4587511
      297.0000      35903.50      26243.20      0.3681067
      300.0000      37395.60      26243.20      0.4249633
      303.0000      40366.20      26243.20      0.5381583
      306.0000      38357.30      26243.20      0.4616090
      309.0000      35771.60      26243.20      0.3630806
      312.0000      30406.20      26243.20      0.1586315
      315.0000      30284.70      26243.20      0.1540017
      318.0000      29446.80      26243.20      0.1220734
      321.0000      29519.20      26243.20      0.1248322
      324.0000      31543.20      26243.20      0.2019570
      327.0000      28943.80      26243.20      0.1029066
      330.0000      26771.50      26243.20      0.0201308
      333.0000      28818.40      26243.20      0.0981282
      336.0000      28818.40      26243.20      0.0981282
      339.0000      37525.70      26243.20      0.4299208
      342.0000      39108.70      26243.20      0.4902411
      345.0000      31398.30      26243.20      0.1964355
      348.0000      30314.80      26243.20      0.1551487
      351.0000      26226.50      26243.20      -0.0006365
      354.0000      25048.00      26243.20      -0.0455433
      357.0000      24090.90      26243.20      -0.0820137
      360.0000      18031.70      26243.20      -0.3129002
