      19    2299    0     datakind beginning-row linenumbers
MSCD Version 1.00 Yufeng Chen and Michel A Van Hove
Lawrence Berkeley National Laboratory (LBNL), Berkeley, CA 94720
Copyright (c) Van Hove Group 1997. All rights reserved
--------------------------------------------------------------
angle-resolved photoemission extended fine structure (ARPEFS)
experimental data for Fe 2p3/2 from Fe on STO(100)  excited with hv=1810eV
provided by Pancotti et al. (LNLS in 9, June 2010)
   initial angular momentum (l) = 1
   photon polarization angle (polar, azimuth) = (  30.0,   0.0 ) (deg)
   sample temperature = 300 K
   photoemission angular scan curves
     (curve point theta phi weightc weighte//k intensity chiexp)
      19     2299       1       19     121     2299
       1     121       19.5900     15.0000      1.00000      0.00000
      0.0000      40285.30      36944.60      0.0526856
      3.0000      47163.90      36944.60      0.0691212
      6.0000      45024.40      36944.60      0.1683619
      9.0000      44993.30      36944.60      0.0760367
      12.0000      42540.80      36944.60      0.0527334
      15.0000      48381.10      36944.60      0.1552355
      18.0000      43152.90      36944.60      0.0999139
      21.0000      39211.60      36944.60      0.0971964
      24.0000      37336.80      36944.60      -0.0186584
      27.0000      35473.80      36944.60      0.0237158
      30.0000      41623.90      36944.60      0.0298126
      33.0000      35237.30      36944.60      -0.0275568
      36.0000      35876.50      36944.60      0.0334253
      39.0000      35594.50      36944.60      -0.0410218
      42.0000      39443.00      36944.60      0.0587069
      45.0000      39046.30      36944.60      0.0408118
      48.0000      32842.40      36944.60      -0.0374132
      51.0000      33038.00      36944.60      -0.0419950
      54.0000      31484.10      36944.60      -0.0627869
      57.0000      36571.90      36944.60      -0.0100603
      60.0000      30008.40      36944.60      -0.1552618
      63.0000      30370.80      36944.60      -0.1112659
      66.0000      32897.50      36944.60      -0.0265861
      69.0000      24559.10      36944.60      -0.2014401
      72.0000      29720.00      36944.60      -0.1159480
      75.0000      33517.40      36944.60      -0.0913381
      78.0000      31139.00      36944.60      -0.1008764
      81.0000      33172.70      36944.60      -0.0018429
      84.0000      39090.30      36944.60      0.0521428
      87.0000      40418.10      36944.60      0.1711507
      90.0000      40208.90      36944.60      0.1027209
      93.0000      35629.50      36944.60      0.0354650
      96.0000      37481.80      36944.60      0.0648184
      99.0000      37565.60      36944.60      0.0859496
      102.0000      37028.20      36944.60      -0.0064520
      105.0000      40075.10      36944.60      0.1415854
      108.0000      35286.30      36944.60      0.0527036
      111.0000      27173.30      36944.60      -0.0290579
      114.0000      29863.90      36944.60      -0.0396597
      117.0000      23208.30      36944.60      -0.2049488
      120.0000      26109.40      36944.60      -0.2462574
      123.0000      31183.90      36944.60      -0.0380890
      126.0000      32258.80      36944.60      0.0151039
      129.0000      33112.40      36944.60      -0.0454585
      132.0000      32718.10      36944.60      -0.0900822
      135.0000      31612.90      36944.60      -0.0877152
      138.0000      32556.20      36944.60      -0.0488465
      141.0000      37158.00      36944.60      -0.0261930
      144.0000      33928.60      36944.60      0.0063370
      147.0000      30401.30      36944.60      -0.0763828
      150.0000      41332.30      36944.60      0.1137396
      153.0000      39922.10      36944.60      0.0998035
      156.0000      34678.80      36944.60      -0.0334588
      159.0000      30337.80      36944.60      -0.1343852
      162.0000      36549.50      36944.60      0.0483969
      165.0000      31864.40      36944.60      -0.0972842
      168.0000      34197.40      36944.60      0.0318510
      171.0000      35592.20      36944.60      0.0690116
      174.0000      33075.60      36944.60      -0.0585801
      177.0000      41930.80      36944.60      0.2601480
      180.0000      42884.70      36944.60      0.0526856
      183.0000      37967.30      36944.60      0.0691212
      186.0000      46631.50      36944.60      0.1683619
      189.0000      39537.10      36944.60      0.0760367
      192.0000      39629.90      36944.60      0.0527334
      195.0000      41572.80      36944.60      0.1552355
      198.0000      41892.40      36944.60      0.0999139
      201.0000      45064.30      36944.60      0.0971965
      204.0000      37908.80      36944.60      -0.0186585
      207.0000      42641.50      36944.60      0.0237158
      210.0000      36826.10      36944.60      0.0298126
      213.0000      38557.50      36944.60      -0.0275569
      216.0000      42336.10      36944.60      0.0334254
      219.0000      36730.20      36944.60      -0.0410218
      222.0000      40160.90      36944.60      0.0587069
      225.0000      38971.50      36944.60      0.0408118
      228.0000      39327.60      36944.60      -0.0374132
      231.0000      38605.20      36944.60      -0.0419950
      234.0000      38531.00      36944.60      -0.0627869
      237.0000      36905.00      36944.60      -0.0100603
      240.0000      32682.70      36944.60      -0.1552618
      243.0000      35601.80      36944.60      -0.1112659
      246.0000      39287.40      36944.60      -0.0265862
      249.0000      34904.80      36944.60      -0.2014401
      252.0000      35666.10      36944.60      -0.1159480
      255.0000      33145.70      36944.60      -0.0913381
      258.0000      35046.30      36944.60      -0.1008764
      261.0000      40441.40      36944.60      -0.0018429
      264.0000      37729.00      36944.60      0.0521428
      267.0000      45521.70      36944.60      0.1711507
      270.0000      40254.40      36944.60      0.1027210
      273.0000      40230.50      36944.60      0.0354650
      276.0000      40313.10      36944.60      0.0648185
      279.0000      41827.90      36944.60      0.0859496
      282.0000      35081.00      36944.60      -0.0064520
      285.0000      43158.90      36944.60      0.1415854
      288.0000      41705.70      36944.60      0.0527036
      291.0000      44710.70      36944.60      -0.0290579
      294.0000      40657.60      36944.60      -0.0396596
      297.0000      35368.00      36944.60      -0.2049488
      300.0000      28705.50      36944.60      -0.2462573
      303.0000      39036.30      36944.60      -0.0380890
      306.0000      41855.00      36944.60      0.0151039
      309.0000      36102.30      36944.60      -0.0454585
      312.0000      33035.10      36944.60      -0.0900822
      315.0000      34382.10      36944.60      -0.0877152
      318.0000      36197.40      36944.60      -0.0488465
      321.0000      32728.70      36944.60      -0.0261930
      324.0000      38605.60      36944.60      0.0063369
      327.0000      36085.90      36944.60      -0.0763828
      330.0000      38330.40      36944.60      0.1137396
      333.0000      38631.80      36944.60      0.0998036
      336.0000      34205.40      36944.60      -0.0334588
      339.0000      31200.00      36944.60      -0.1343852
      342.0000      37742.20      36944.60      0.0483969
      345.0000      31874.70      36944.60      -0.0972842
      348.0000      38330.30      36944.60      0.0318510
      351.0000      39197.00      36944.60      0.0690116
      354.0000      32545.60      36944.60      -0.0585801
      357.0000      45290.40      36944.60      0.2601480
      360.0000      42884.70      36944.60      0.0526856
       2     121       19.5900     18.0000      1.00000      0.00000
      0.0000      50226.30      43777.60      0.1854761
      3.0000      40282.80      43777.60      0.1426566
      6.0000      61495.90      43777.60      0.2433278
      9.0000      53627.30      43777.60      0.1594016
      12.0000      40068.00      43777.60      0.0959107
      15.0000      56040.70      43777.60      0.2248821
      18.0000      38508.20      43777.60      -0.0442224
      21.0000      55862.40      43777.60      0.1513261
      24.0000      47565.30      43777.60      0.2223142
      27.0000      37408.10      43777.60      -0.0069999
      30.0000      41886.00      43777.60      0.0014940
      33.0000      34281.70      43777.60      -0.1053589
      36.0000      49936.80      43777.60      0.1131329
      39.0000      36114.50      43777.60      -0.0275960
      42.0000      36273.90      43777.60      -0.0608117
      45.0000      52373.40      43777.60      0.1095654
      48.0000      50136.70      43777.60      0.0919449
      51.0000      26953.70      43777.60      -0.1793233
      54.0000      43409.10      43777.60      0.0713204
      57.0000      26721.90      43777.60      -0.1313410
      60.0000      34416.90      43777.60      -0.0286573
      63.0000      26035.80      43777.60      -0.1560037
      66.0000      32190.30      43777.60      -0.1791632
      69.0000      33012.50      43777.60      -0.0983033
      72.0000      28807.50      43777.60      -0.2115248
      75.0000      29100.50      43777.60      -0.1717359
      78.0000      31116.40      43777.60      -0.1021095
      81.0000      33863.40      43777.60      -0.0647669
      84.0000      38779.90      43777.60      -0.0009903
      87.0000      44778.50      43777.60      0.0184319
      90.0000      46625.50      43777.60      0.1029810
      93.0000      36312.50      43777.60      -0.0279424
      96.0000      48890.20      43777.60      0.0810925
      99.0000      36704.70      43777.60      -0.0498578
      102.0000      48110.30      43777.60      0.1034614
      105.0000      37513.60      43777.60      -0.0408643
      108.0000      43345.50      43777.60      0.0671824
      111.0000      31265.80      43777.60      -0.1372848
      114.0000      34978.50      43777.60      -0.1150870
      117.0000      38578.00      43777.60      -0.0182897
      120.0000      33772.60      43777.60      -0.1270778
      123.0000      45048.20      43777.60      0.0084497
      126.0000      34674.00      43777.60      -0.0988697
      129.0000      25666.00      43777.60      -0.1901396
      132.0000      40119.00      43777.60      -0.0157966
      135.0000      38427.20      43777.60      -0.0243749
      138.0000      41277.60      43777.60      -0.0057401
      141.0000      38774.80      43777.60      -0.0408771
      144.0000      55676.40      43777.60      0.1552502
      147.0000      36045.30      43777.60      -0.0420669
      150.0000      44736.10      43777.60      0.0007153
      153.0000      40353.60      43777.60      0.0404698
      156.0000      33759.70      43777.60      -0.1099103
      159.0000      34692.20      43777.60      -0.0662953
      162.0000      32218.80      43777.60      -0.1195011
      165.0000      49708.40      43777.60      0.1195159
      168.0000      41862.00      43777.60      0.0171688
      171.0000      38741.10      43777.60      -0.0177399
      174.0000      47420.80      43777.60      0.1210327
      177.0000      43110.70      43777.60      0.1522723
      180.0000      57743.10      43777.60      0.1854761
      183.0000      62808.40      43777.60      0.1426566
      186.0000      51542.20      43777.60      0.2433278
      189.0000      51137.60      43777.60      0.1594016
      192.0000      58330.50      43777.60      0.0959107
      195.0000      53769.00      43777.60      0.2248821
      198.0000      46930.80      43777.60      -0.0442224
      201.0000      46482.90      43777.60      0.1513261
      204.0000      61229.20      43777.60      0.2223142
      207.0000      50868.20      43777.60      -0.0069998
      210.0000      46630.00      43777.60      0.0014940
      213.0000      44906.40      43777.60      -0.1053589
      216.0000      47564.10      43777.60      0.1131329
      219.0000      49811.20      43777.60      -0.0275960
      222.0000      46398.60      43777.60      -0.0608117
      225.0000      43616.20      43777.60      0.1095654
      228.0000      44316.20      43777.60      0.0919449
      231.0000      45878.70      43777.60      -0.1793233
      234.0000      49998.00      43777.60      0.0713204
      237.0000      50707.20      43777.60      -0.1313410
      240.0000      51171.30      43777.60      -0.0286573
      243.0000      49197.20      43777.60      -0.1560037
      246.0000      39351.10      43777.60      -0.1791632
      249.0000      46118.50      43777.60      -0.0983033
      252.0000      40393.10      43777.60      -0.2115248
      255.0000      43891.50      43777.60      -0.1717359
      258.0000      48137.00      43777.60      -0.1021095
      261.0000      48315.40      43777.60      -0.0647669
      264.0000      48315.40      43777.60      -0.0009903
      267.0000      42594.50      43777.60      0.0184319
      270.0000      48540.30      43777.60      0.1029810
      273.0000      48906.00      43777.60      -0.0279424
      276.0000      43591.10      43777.60      0.0810925
      279.0000      46335.50      43777.60      -0.0498578
      282.0000      46894.30      43777.60      0.1034614
      285.0000      46273.30      43777.60      -0.0408643
      288.0000      49505.90      43777.60      0.0671824
      291.0000      44810.50      43777.60      -0.1372849
      294.0000      42342.80      43777.60      -0.1150871
      297.0000      47291.00      43777.60      -0.0182897
      300.0000      42728.80      43777.60      -0.1270778
      303.0000      41969.90      43777.60      0.0084497
      306.0000      44350.90      43777.60      -0.0988697
      309.0000      46483.10      43777.60      -0.1901396
      312.0000      45702.50      43777.60      -0.0157966
      315.0000      46872.90      43777.60      -0.0243749
      318.0000      45231.20      43777.60      -0.0057401
      321.0000      44795.80      43777.60      -0.0408771
      324.0000      43585.20      43777.60      0.1552502
      327.0000      47585.80      43777.60      -0.0420669
      330.0000      41639.30      43777.60      0.0007153
      333.0000      49966.90      43777.60      0.0404698
      336.0000      43376.50      43777.60      -0.1099103
      339.0000      46025.20      43777.60      -0.0662953
      342.0000      43649.10      43777.60      -0.1195011
      345.0000      46096.10      43777.60      0.1195158
      348.0000      44967.00      43777.60      0.0171688
      351.0000      44753.40      43777.60      -0.0177399
      354.0000      47491.00      43777.60      0.1210327
      357.0000      53708.60      43777.60      0.1522723
      360.0000      57743.10      43777.60      0.1854761
       3     121       19.5900     21.0000      1.00000      0.00000
      0.0000      63718.50      47381.20      0.2035249
      3.0000      59887.10      47381.20      0.1756131
      6.0000      59486.20      47381.20      0.1692562
      9.0000      51217.50      47381.20      0.1109411
      12.0000      40249.90      47381.20      -0.0538588
      15.0000      41769.70      47381.20      -0.0168923
      18.0000      53345.10      47381.20      0.1751234
      21.0000      51599.70      47381.20      0.0491788
      24.0000      40239.60      47381.20      -0.0501884
      27.0000      30801.60      47381.20      -0.1929246
      30.0000      29973.30      47381.20      -0.1610294
      33.0000      33922.30      47381.20      -0.0762455
      36.0000      51375.30      47381.20      0.0589752
      39.0000      43296.00      47381.20      0.0966048
      42.0000      39575.10      47381.20      -0.0421197
      45.0000      33332.80      47381.20      -0.1270131
      48.0000      44034.20      47381.20      0.0008402
      51.0000      43605.50      47381.20      0.0387503
      54.0000      43605.50      47381.20      0.0509889
      57.0000      37132.10      47381.20      -0.0140551
      60.0000      38236.80      47381.20      0.1470789
      63.0000      51921.50      47381.20      0.1077935
      66.0000      29450.10      47381.20      -0.0839197
      69.0000      29450.10      47381.20      -0.1704542
      72.0000      27064.80      47381.20      -0.0653706
      75.0000      33550.90      47381.20      -0.1170726
      78.0000      42318.00      47381.20      -0.0706049
      81.0000      36050.10      47381.20      -0.0992469
      84.0000      33343.50      47381.20      -0.0908641
      87.0000      43450.10      47381.20      0.0100227
      90.0000      29720.90      47381.20      -0.2104467
      93.0000      63544.50      47381.20      0.3638664
      96.0000      48462.40      47381.20      0.0904476
      99.0000      48412.70      47381.20      0.2170666
      102.0000      36323.90      47381.20      -0.0237050
      105.0000      47599.40      47381.20      0.1755999
      108.0000      44849.40      47381.20      -0.1096177
      111.0000      39180.40      47381.20      -0.0006928
      114.0000      27647.30      47381.20      -0.1773333
      117.0000      30019.00      47381.20      -0.2733580
      120.0000      28922.40      47381.20      -0.2694428
      123.0000      38735.80      47381.20      -0.2014504
      126.0000      37805.50      47381.20      0.0327699
      129.0000      38347.80      47381.20      -0.0467821
      132.0000      43088.10      47381.20      0.0940219
      135.0000      47055.90      47381.20      0.0769459
      138.0000      46703.80      47381.20      0.0736256
      141.0000      40425.80      47381.20      0.0649765
      144.0000      48011.40      47381.20      0.0609264
      147.0000      51931.00      47381.20      0.0932238
      150.0000      42540.50      47381.20      0.1003858
      153.0000      42540.50      47381.20      -0.0164770
      156.0000      42540.50      47381.20      -0.1210163
      159.0000      36400.10      47381.20      -0.0482106
      162.0000      40239.10      47381.20      -0.0706100
      165.0000      41262.90      47381.20      -0.0462599
      168.0000      38809.90      47381.20      -0.0794216
      171.0000      51329.20      47381.20      0.1998428
      174.0000      51329.20      47381.20      -0.0109419
      177.0000      51329.20      47381.20      0.0841932
      180.0000      56011.80      47381.20      0.2035249
      183.0000      56256.90      47381.20      0.1756130
      186.0000      55406.10      47381.20      0.1692562
      189.0000      57328.50      47381.20      0.1109411
      192.0000      51876.70      47381.20      -0.0538589
      195.0000      53640.70      47381.20      -0.0168923
      198.0000      60067.60      47381.20      0.1751234
      201.0000      48846.20      47381.20      0.0491789
      204.0000      51039.10      47381.20      -0.0501884
      207.0000      47017.40      47381.20      -0.1929246
      210.0000      51108.50      47381.20      -0.1610294
      213.0000      55045.50      47381.20      -0.0762455
      216.0000      47699.60      47381.20      0.0589752
      219.0000      61260.10      47381.20      0.0966048
      222.0000      51107.10      47381.20      -0.0421197
      225.0000      49903.00      47381.20      -0.1270131
      228.0000      49489.10      47381.20      0.0008402
      231.0000      53900.30      47381.20      0.0387503
      234.0000      55046.80      47381.20      0.0509889
      237.0000      56616.90      47381.20      -0.0140550
      240.0000      72596.00      47381.20      0.1470789
      243.0000      49405.40      47381.20      0.1077935
      246.0000      59529.00      47381.20      -0.0839198
      249.0000      50042.60      47381.20      -0.1704542
      252.0000      65049.70      47381.20      -0.0653706
      255.0000      50197.60      47381.20      -0.1170726
      258.0000      42898.30      47381.20      -0.0706049
      261.0000      48697.00      47381.20      -0.0992470
      264.0000      53568.30      47381.20      -0.0908641
      267.0000      50414.60      47381.20      0.0100228
      270.0000      45569.80      47381.20      -0.2104466
      273.0000      61385.10      47381.20      0.3638664
      276.0000      52574.20      47381.20      0.0904477
      279.0000      66931.50      47381.20      0.2170666
      282.0000      57368.70      47381.20      -0.0237050
      285.0000      63761.00      47381.20      0.1755999
      288.0000      36083.60      47381.20      -0.1096177
      291.0000      56226.90      47381.20      -0.0006928
      294.0000      52719.00      47381.20      -0.1773333
      297.0000      38929.30      47381.20      -0.2733580
      300.0000      40910.50      47381.20      -0.2694428
      303.0000      35244.80      47381.20      -0.2014504
      306.0000      61987.00      47381.20      0.0327699
      309.0000      52667.10      47381.20      -0.0467821
      312.0000      61617.60      47381.20      0.0940219
      315.0000      54719.00      47381.20      0.0769459
      318.0000      54794.10      47381.20      0.0736256
      321.0000      61514.60      47381.20      0.0649766
      324.0000      51756.80      47381.20      0.0609264
      327.0000      50331.30      47381.20      0.0932238
      330.0000      61799.20      47381.20      0.1003857
      333.0000      49785.60      47381.20      -0.0164770
      336.0000      39241.10      47381.20      -0.1210163
      339.0000      52719.20      47381.20      -0.0482106
      342.0000      46034.60      47381.20      -0.0706100
      345.0000      46828.40      47381.20      -0.0462599
      348.0000      45729.10      47381.20      -0.0794216
      351.0000      58124.70      47381.20      0.1998428
      354.0000      38751.50      47381.20      -0.0109419
      357.0000      46458.70      47381.20      0.0841932
      360.0000      56011.80      47381.20      0.2035249
       4     121       19.5900     24.0000      1.00000      0.00000
      0.0000      57820.00      45860.40      0.1268669
      3.0000      67015.20      45860.40      0.1919790
      6.0000      52414.30      45860.40      0.0880005
      9.0000      44295.50      45860.40      -0.0279124
      12.0000      47809.00      45860.40      0.0189059
      15.0000      39836.30      45860.40      0.0505726
      18.0000      48618.50      45860.40      0.0307415
      21.0000      41106.00      45860.40      -0.1976337
      24.0000      50819.30      45860.40      0.0396558
      27.0000      50819.30      45860.40      0.1445535
      30.0000      41886.10      45860.40      -0.0218391
      33.0000      40718.30      45860.40      -0.0494450
      36.0000      43003.70      45860.40      0.0075407
      39.0000      22076.30      45860.40      -0.3450383
      42.0000      48814.40      45860.40      0.0099694
      45.0000      31968.20      45860.40      -0.1103427
      48.0000      37999.40      45860.40      0.0259077
      51.0000      46294.80      45860.40      0.0068352
      54.0000      45321.50      45860.40      0.0745770
      57.0000      40091.40      45860.40      0.0610780
      60.0000      36701.80      45860.40      -0.0054015
      63.0000      40420.80      45860.40      0.0274782
      66.0000      37414.30      45860.40      -0.0521391
      69.0000      48224.60      45860.40      0.1358431
      72.0000      30993.60      45860.40      -0.1735611
      75.0000      34107.70      45860.40      -0.1271342
      78.0000      22269.70      45860.40      -0.2101088
      81.0000      38935.70      45860.40      0.0143405
      84.0000      29619.70      45860.40      -0.1526039
      87.0000      51981.40      45860.40      0.1459358
      90.0000      44844.10      45860.40      0.1267064
      93.0000      37791.10      45860.40      0.1587140
      96.0000      42735.80      45860.40      0.1431501
      99.0000      54051.60      45860.40      0.3407374
      102.0000      50865.80      45860.40      0.1833390
      105.0000      52136.50      45860.40      0.2763767
      108.0000      23240.30      45860.40      -0.1927958
      111.0000      26921.10      45860.40      -0.0494986
      114.0000      34447.70      45860.40      -0.0290291
      117.0000      24911.30      45860.40      -0.3243060
      120.0000      32162.30      45860.40      -0.1570320
      123.0000      35102.20      45860.40      -0.0390543
      126.0000      31138.40      45860.40      -0.0482871
      129.0000      34259.70      45860.40      -0.1000593
      132.0000      41760.30      45860.40      0.0545232
      135.0000      39734.60      45860.40      -0.0227699
      138.0000      37522.10      45860.40      -0.0709858
      141.0000      43166.20      45860.40      0.0932157
      144.0000      48641.80      45860.40      0.0651268
      147.0000      43973.40      45860.40      0.1003465
      150.0000      34333.00      45860.40      -0.0773153
      153.0000      54905.30      45860.40      0.1360667
      156.0000      41118.50      45860.40      0.0069978
      159.0000      42955.50      45860.40      -0.0288374
      162.0000      24037.50      45860.40      0.0223802
      165.0000      39707.10      45860.40      -0.0949433
      168.0000      34220.50      45860.40      -0.1837181
      171.0000      51790.10      45860.40      -0.0491913
      174.0000      45332.40      45860.40      0.0870894
      177.0000      39792.50      45860.40      -0.0461494
      180.0000      53550.50      45860.40      0.1268669
      183.0000      50955.80      45860.40      0.1919790
      186.0000      53478.40      45860.40      0.0880005
      189.0000      49599.00      45860.40      -0.0279124
      192.0000      50225.40      45860.40      0.0189059
      195.0000      60439.50      45860.40      0.0505726
      198.0000      49499.00      45860.40      0.0307415
      201.0000      34748.70      45860.40      -0.1976337
      204.0000      46924.30      45860.40      0.0396558
      207.0000      56548.60      45860.40      0.1445535
      210.0000      49592.00      45860.40      -0.0218391
      213.0000      47773.20      45860.40      -0.0494450
      216.0000      50395.00      45860.40      0.0075407
      219.0000      39531.90      45860.40      -0.3450383
      222.0000      42708.10      45860.40      0.0099694
      225.0000      50929.80      45860.40      -0.1103427
      228.0000      57066.90      45860.40      0.0259077
      231.0000      44094.10      45860.40      0.0068352
      234.0000      52013.90      45860.40      0.0745770
      237.0000      57288.10      45860.40      0.0610781
      240.0000      54699.50      45860.40      -0.0054015
      243.0000      52885.40      45860.40      0.0274782
      246.0000      48439.60      45860.40      -0.0521391
      249.0000      53075.70      45860.40      0.1358431
      252.0000      44313.80      45860.40      -0.1735611
      255.0000      44754.00      45860.40      -0.1271342
      258.0000      52893.90      45860.40      -0.2101087
      261.0000      52893.90      45860.40      0.0143405
      264.0000      48426.00      45860.40      -0.1526039
      267.0000      47974.20      45860.40      0.1459358
      270.0000      56390.80      45860.40      0.1267064
      273.0000      70307.70      45860.40      0.1587139
      276.0000      61384.20      45860.40      0.1431501
      279.0000      66297.80      45860.40      0.3407374
      282.0000      53978.70      45860.40      0.1833391
      285.0000      62354.40      45860.40      0.2763767
      288.0000      53673.90      45860.40      -0.1927958
      291.0000      63849.20      45860.40      -0.0494986
      294.0000      55243.80      45860.40      -0.0290291
      297.0000      37141.50      45860.40      -0.3243059
      300.0000      44855.90      45860.40      -0.1570320
      303.0000      53363.80      45860.40      -0.0390543
      306.0000      57852.20      45860.40      -0.0482871
      309.0000      48096.40      45860.40      -0.1000593
      312.0000      54186.00      45860.40      0.0545232
      315.0000      48842.80      45860.40      -0.0227699
      318.0000      46743.20      45860.40      -0.0709858
      321.0000      56197.40      45860.40      0.0932157
      324.0000      46403.50      45860.40      0.0651267
      327.0000      55605.80      45860.40      0.1003465
      330.0000      49483.90      45860.40      -0.0773153
      333.0000      45766.10      45860.40      0.1360667
      336.0000      49117.00      45860.40      0.0069978
      339.0000      43356.80      45860.40      -0.0288374
      342.0000      68318.80      45860.40      0.0223802
      345.0000      40135.90      45860.40      -0.0949433
      348.0000      37465.10      45860.40      -0.1837181
      351.0000      31241.80      45860.40      -0.0491913
      354.0000      48789.20      45860.40      0.0870894
      357.0000      42092.20      45860.40      -0.0461494
      360.0000      53550.50      45860.40      0.1268669
       5     121       19.5900     27.0000      1.00000      0.00000
      0.0000      61987.20      44385.00      0.1154768
      3.0000      81884.90      44385.00      0.1695486
      6.0000      53247.70      44385.00      -0.0647485
      9.0000      56453.10      44385.00      0.0438037
      12.0000      35288.00      44385.00      -0.1504227
      15.0000      57632.40      44385.00      0.1979678
      18.0000      48223.70      44385.00      0.1125928
      21.0000      49257.40      44385.00      0.1259876
      24.0000      47222.70      44385.00      0.1436949
      27.0000      34823.50      44385.00      -0.1961722
      30.0000      34865.50      44385.00      -0.0626534
      33.0000      20424.90      44385.00      -0.2967332
      36.0000      46276.10      44385.00      -0.0311665
      39.0000      52844.40      44385.00      0.0572347
      42.0000      54240.60      44385.00      0.2002120
      45.0000      35533.20      44385.00      -0.0107333
      48.0000      39968.00      44385.00      -0.0298104
      51.0000      48866.40      44385.00      0.1638856
      54.0000      41819.10      44385.00      0.1598087
      57.0000      38824.80      44385.00      0.0108927
      60.0000      30139.40      44385.00      -0.1826639
      63.0000      42065.90      44385.00      0.1318272
      66.0000      27409.90      44385.00      -0.0729603
      69.0000      27409.90      44385.00      -0.0460343
      72.0000      27409.90      44385.00      -0.0838173
      75.0000      29103.10      44385.00      -0.0506662
      78.0000      34437.40      44385.00      -0.0165295
      81.0000      27620.40      44385.00      -0.1770207
      84.0000      27620.40      44385.00      -0.1530967
      87.0000      45412.10      44385.00      0.1539454
      90.0000      41354.50      44385.00      0.1588861
      93.0000      41089.10      44385.00      0.1754487
      96.0000      39549.10      44385.00      0.1056818
      99.0000      33141.60      44385.00      0.1300541
      102.0000      33551.00      44385.00      -0.0308243
      105.0000      36272.80      44385.00      0.1295825
      108.0000      28250.50      44385.00      -0.0883148
      111.0000      25019.60      44385.00      -0.0544706
      114.0000      25019.60      44385.00      -0.1511774
      117.0000      26948.00      44385.00      -0.0879908
      120.0000      11369.80      44385.00      -0.3919742
      123.0000      25901.40      44385.00      -0.2963587
      126.0000      40450.00      44385.00      0.0767397
      129.0000      29323.90      44385.00      0.0022642
      132.0000      38950.80      44385.00      0.0160616
      135.0000      49194.10      44385.00      0.0568136
      138.0000      44264.10      44385.00      0.1473213
      141.0000      35453.80      44385.00      -0.0839657
      144.0000      36811.10      44385.00      0.0623076
      147.0000      23189.00      44385.00      -0.2103774
      150.0000      38752.50      44385.00      0.0204474
      153.0000      32315.60      44385.00      -0.0497688
      156.0000      39273.90      44385.00      0.2444407
      159.0000      39273.90      44385.00      0.0581434
      162.0000      35387.20      44385.00      -0.1502499
      165.0000      37553.70      44385.00      -0.0628443
      168.0000      37553.70      44385.00      0.0368655
      171.0000      33548.50      44385.00      0.0425600
      174.0000      46418.80      44385.00      0.1243281
      177.0000      38582.60      44385.00      -0.1024897
      180.0000      50152.30      44385.00      0.1154768
      183.0000      39486.70      44385.00      0.1695486
      186.0000      39791.80      44385.00      -0.0647485
      189.0000      45926.00      44385.00      0.0438037
      192.0000      45593.50      44385.00      -0.1504227
      195.0000      56996.00      44385.00      0.1979678
      198.0000      56996.00      44385.00      0.1125928
      201.0000      56654.80      44385.00      0.1259876
      204.0000      59632.50      44385.00      0.1436949
      207.0000      39812.80      44385.00      -0.1961722
      210.0000      51918.00      44385.00      -0.0626534
      213.0000      44970.40      44385.00      -0.2967332
      216.0000      41081.10      44385.00      -0.0311665
      219.0000      41081.10      44385.00      0.0572347
      222.0000      52448.50      44385.00      0.2002120
      225.0000      54002.10      44385.00      -0.0107333
      228.0000      45811.70      44385.00      -0.0298104
      231.0000      52915.50      44385.00      0.1638857
      234.0000      61400.30      44385.00      0.1598087
      237.0000      49652.60      44385.00      0.0108927
      240.0000      41508.00      44385.00      -0.1826639
      243.0000      56435.30      44385.00      0.1318272
      246.0000      56499.40      44385.00      -0.0729603
      249.0000      59168.50      44385.00      -0.0460344
      252.0000      54948.60      44385.00      -0.0838173
      255.0000      55631.40      44385.00      -0.0506662
      258.0000      50471.40      44385.00      -0.0165295
      261.0000      44006.80      44385.00      -0.1770207
      264.0000      46472.30      44385.00      -0.1530967
      267.0000      50105.10      44385.00      0.1539454
      270.0000      57316.70      44385.00      0.1588861
      273.0000      59494.20      44385.00      0.1754487
      276.0000      54389.70      44385.00      0.1056818
      279.0000      68019.50      44385.00      0.1300540
      282.0000      49615.30      44385.00      -0.0308243
      285.0000      62724.20      44385.00      0.1295824
      288.0000      52432.70      44385.00      -0.0883148
      291.0000      61668.50      44385.00      -0.0544706
      294.0000      51102.10      44385.00      -0.1511774
      297.0000      54851.80      44385.00      -0.0879908
      300.0000      47413.10      44385.00      -0.3919742
      303.0000      34109.00      44385.00      -0.2963588
      306.0000      51089.10      44385.00      0.0767397
      309.0000      60818.80      44385.00      0.0022642
      312.0000      47366.60      44385.00      0.0160616
      315.0000      36303.80      44385.00      0.0568135
      318.0000      53408.70      44385.00      0.1473212
      321.0000      42570.40      44385.00      -0.0839656
      324.0000      55516.60      44385.00      0.0623076
      327.0000      46905.30      44385.00      -0.2103774
      330.0000      48421.60      44385.00      0.0204474
      333.0000      49854.30      44385.00      -0.0497688
      336.0000      68657.00      44385.00      0.2444406
      339.0000      50589.40      44385.00      0.0581434
      342.0000      35716.10      44385.00      -0.1502500
      345.0000      40753.10      44385.00      -0.0628443
      348.0000      48946.50      44385.00      0.0368655
      351.0000      52838.30      44385.00      0.0425600
      354.0000      45494.10      44385.00      0.1243281
      357.0000      34165.40      44385.00      -0.1024897
      360.0000      50152.30      44385.00      0.1154768
       6     121       19.5900     30.0000      1.00000      0.00000
      0.0000      147018.70      101076.30      0.0627688
      3.0000      124515.90      101076.30      0.1361022
      6.0000      115642.30      101076.30      -0.0931735
      9.0000      114596.10      101076.30      0.0438519
      12.0000      79344.00      101076.30      -0.1034244
      15.0000      125028.80      101076.30      0.0579945
      18.0000      85311.90      101076.30      0.0099623
      21.0000      130083.90      101076.30      0.0790821
      24.0000      130083.90      101076.30      0.1204334
      27.0000      84100.20      101076.30      -0.1881522
      30.0000      74172.90      101076.30      -0.0803291
      33.0000      105506.80      101076.30      0.1321069
      36.0000      72496.80      101076.30      -0.1563343
      39.0000      97301.80      101076.30      0.0105236
      42.0000      61941.60      101076.30      -0.1536953
      45.0000      119244.80      101076.30      0.1917020
      48.0000      93751.80      101076.30      0.0314827
      51.0000      93724.10      101076.30      0.1162955
      54.0000      108819.80      101076.30      0.1769782
      57.0000      92708.90      101076.30      0.1243648
      60.0000      73910.40      101076.30      -0.0080097
      63.0000      75306.40      101076.30      -0.0389180
      66.0000      81774.00      101076.30      0.0803882
      69.0000      73874.90      101076.30      -0.0000665
      72.0000      73874.90      101076.30      -0.0021877
      75.0000      96899.70      101076.30      0.0051360
      78.0000      63730.00      101076.30      0.0012856
      81.0000      93870.80      101076.30      0.1121623
      84.0000      78135.10      101076.30      0.0245647
      87.0000      76660.90      101076.30      -0.0000017
      90.0000      68449.60      101076.30      -0.1098393
      93.0000      82391.60      101076.30      0.1650971
      96.0000      95656.00      101076.30      0.1409620
      99.0000      95656.00      101076.30      0.2172780
      102.0000      67918.70      101076.30      -0.0237139
      105.0000      58341.60      101076.30      -0.1368843
      108.0000      68420.10      101076.30      -0.0650075
      111.0000      87091.00      101076.30      0.0340813
      114.0000      69150.90      101076.30      -0.0161348
      117.0000      65762.00      101076.30      0.0007322
      120.0000      63071.80      101076.30      -0.0236249
      123.0000      74420.30      101076.30      -0.0509804
      126.0000      86383.40      101076.30      0.0942452
      129.0000      57089.50      101076.30      -0.0656911
      132.0000      107919.00      101076.30      0.1435726
      135.0000      80840.00      101076.30      0.0339429
      138.0000      90442.60      101076.30      -0.1240619
      141.0000      63905.30      101076.30      -0.1796428
      144.0000      71468.40      101076.30      -0.1223156
      147.0000      74491.90      101076.30      -0.0900771
      150.0000      87524.50      101076.30      0.0077618
      153.0000      91710.80      101076.30      0.0553858
      156.0000      76055.60      101076.30      -0.0467414
      159.0000      81516.40      101076.30      -0.0606701
      162.0000      62365.60      101076.30      -0.2175416
      165.0000      80040.50      101076.30      -0.1346742
      168.0000      89984.20      101076.30      0.0073888
      171.0000      85295.60      101076.30      -0.1641283
      174.0000      77330.50      101076.30      0.0668634
      177.0000      88935.90      101076.30      0.0073532
      180.0000      100058.10      101076.30      0.0627688
      183.0000      130262.80      101076.30      0.1361022
      186.0000      89427.60      101076.30      -0.0931735
      189.0000      116745.90      101076.30      0.0438519
      192.0000      116071.20      101076.30      -0.1034244
      195.0000      106652.20      101076.30      0.0579945
      198.0000      132987.70      101076.30      0.0099623
      201.0000      101534.00      101076.30      0.0790821
      204.0000      108007.40      101076.30      0.1204334
      207.0000      87558.20      101076.30      -0.1881521
      210.0000      121566.30      101076.30      -0.0803291
      213.0000      131710.30      101076.30      0.1321069
      216.0000      104350.40      101076.30      -0.1563343
      219.0000      110400.00      101076.30      0.0105236
      222.0000      116561.90      101076.30      -0.1536953
      225.0000      119921.90      101076.30      0.1917021
      228.0000      114969.50      101076.30      0.0314827
      231.0000      133754.70      101076.30      0.1162955
      234.0000      124920.70      101076.30      0.1769783
      237.0000      134505.10      101076.30      0.1243648
      240.0000      129654.70      101076.30      -0.0080097
      243.0000      119064.70      101076.30      -0.0389180
      246.0000      137509.40      101076.30      0.0803882
      249.0000      129486.50      101076.30      -0.0000665
      252.0000      128359.50      101076.30      -0.0021877
      255.0000      91380.30      101076.30      0.0051360
      258.0000      145319.20      101076.30      0.0012856
      261.0000      122034.90      101076.30      0.1121623
      264.0000      126252.20      101076.30      0.0245647
      267.0000      122320.50      101076.30      -0.0000017
      270.0000      108403.70      101076.30      -0.1098393
      273.0000      154211.90      101076.30      0.1650971
      276.0000      125281.00      101076.30      0.1409620
      279.0000      144773.00      101076.30      0.2172780
      282.0000      131272.00      101076.30      -0.0237139
      285.0000      119024.70      101076.30      -0.1368843
      288.0000      120232.30      101076.30      -0.0650075
      291.0000      114142.00      101076.30      0.0340813
      294.0000      131484.90      101076.30      -0.0161348
      297.0000      141199.10      101076.30      0.0007322
      300.0000      139383.60      101076.30      -0.0236249
      303.0000      114699.30      101076.30      -0.0509804
      306.0000      131458.10      101076.30      0.0942452
      309.0000      137362.50      101076.30      -0.0656912
      312.0000      111322.70      101076.30      0.1435725
      315.0000      125049.50      101076.30      0.0339429
      318.0000      74873.40      101076.30      -0.1240619
      321.0000      98803.20      101076.30      -0.1796428
      324.0000      100994.20      101076.30      -0.1223156
      327.0000      103514.80      101076.30      -0.0900771
      330.0000      107493.60      101076.30      0.0077618
      333.0000      111544.90      101076.30      0.0553858
      336.0000      107475.10      101076.30      -0.0467414
      339.0000      97050.90      101076.30      -0.0606701
      342.0000      85450.40      101076.30      -0.2175416
      345.0000      81370.90      101076.30      -0.1346742
      348.0000      95936.40      101076.30      0.0073888
      351.0000      67910.40      101076.30      -0.1641283
      354.0000      112044.00      101076.30      0.0668634
      357.0000      88980.80      101076.30      0.0073532
      360.0000      100058.10      101076.30      0.0627688
       7     121       19.5900     33.0000      1.00000      0.00000
      0.0000      90256.50      101190.90      -0.1828147
      3.0000      95768.30      101190.90      0.0351976
      6.0000      99352.40      101190.90      -0.0663805
      9.0000      88710.00      101190.90      -0.0598983
      12.0000      96834.90      101190.90      -0.0087471
      15.0000      87220.60      101190.90      -0.0467286
      18.0000      84583.20      101190.90      0.0629748
      21.0000      89915.30      101190.90      -0.0006243
      24.0000      75604.40      101190.90      -0.0478521
      27.0000      74564.60      101190.90      -0.1227625
      30.0000      80182.30      101190.90      -0.0081491
      33.0000      79871.00      101190.90      -0.0692952
      36.0000      77723.90      101190.90      0.0134674
      39.0000      69848.50      101190.90      -0.0404095
      42.0000      67183.40      101190.90      0.0318403
      45.0000      73467.50      101190.90      0.0327024
      48.0000      75754.30      101190.90      0.1768219
      51.0000      87921.40      101190.90      0.0861608
      54.0000      100500.10      101190.90      0.3216688
      57.0000      56927.50      101190.90      -0.0695195
      60.0000      74759.80      101190.90      0.0534349
      63.0000      91971.80      101190.90      0.2101797
      66.0000      69164.60      101190.90      -0.0993456
      69.0000      80705.10      101190.90      0.2342840
      72.0000      68038.90      101190.90      0.0039811
      75.0000      56385.20      101190.90      -0.0420866
      78.0000      42205.30      101190.90      -0.1286669
      81.0000      65204.80      101190.90      0.1503563
      84.0000      46100.20      101190.90      -0.1453876
      87.0000      75037.90      101190.90      0.0943853
      90.0000      85419.30      101190.90      0.1196541
      93.0000      93587.40      101190.90      0.2323535
      96.0000      73545.20      101190.90      -0.0047674
      99.0000      64673.40      101190.90      -0.0786165
      102.0000      73287.50      101190.90      0.1365967
      105.0000      76544.80      101190.90      -0.0232026
      108.0000      76404.50      101190.90      0.0063870
      111.0000      68227.50      101190.90      -0.0158508
      114.0000      78375.10      101190.90      -0.1255145
      117.0000      62797.20      101190.90      -0.1676621
      120.0000      96209.70      101190.90      0.1368655
      123.0000      65118.60      101190.90      -0.1346667
      126.0000      68525.30      101190.90      -0.1693023
      129.0000      78808.80      101190.90      0.1169147
      132.0000      67825.40      101190.90      -0.0894923
      135.0000      71938.60      101190.90      -0.1290739
      138.0000      76110.40      101190.90      -0.0352730
      141.0000      92160.60      101190.90      0.0883558
      144.0000      87845.50      101190.90      -0.0452872
      147.0000      88241.30      101190.90      0.0475622
      150.0000      97922.80      101190.90      0.0219774
      153.0000      71148.10      101190.90      -0.1638415
      156.0000      92813.00      101190.90      0.0555565
      159.0000      90447.70      101190.90      -0.0676765
      162.0000      81636.30      101190.90      -0.0250436
      165.0000      89445.10      101190.90      0.0227243
      168.0000      109819.20      101190.90      0.0303120
      171.0000      82745.30      101190.90      -0.1083490
      174.0000      95131.50      101190.90      -0.0160642
      177.0000      97571.90      101190.90      0.0774314
      180.0000      78396.10      101190.90      -0.1828147
      183.0000      116679.20      101190.90      0.0351976
      186.0000      89788.30      101190.90      -0.0663806
      189.0000      101406.40      101190.90      -0.0598984
      192.0000      101406.40      101190.90      -0.0087471
      195.0000      103079.80      101190.90      -0.0467286
      198.0000      129572.70      101190.90      0.0629748
      201.0000      106811.00      101190.90      -0.0006243
      204.0000      114178.80      101190.90      -0.0478521
      207.0000      97124.10      101190.90      -0.1227625
      210.0000      114525.50      101190.90      -0.0081491
      213.0000      99204.60      101190.90      -0.0692952
      216.0000      121207.10      101190.90      0.0134674
      219.0000      119919.00      101190.90      -0.0404094
      222.0000      141419.40      101190.90      0.0318403
      225.0000      130462.60      101190.90      0.0327024
      228.0000      161984.40      101190.90      0.1768219
      231.0000      116984.10      101190.90      0.0861608
      234.0000      153234.00      101190.90      0.3216688
      237.0000      133173.80      101190.90      -0.0695195
      240.0000      131431.00      101190.90      0.0534349
      243.0000      139286.60      101190.90      0.2101797
      246.0000      102249.60      101190.90      -0.0993456
      249.0000      167750.90      101190.90      0.2342840
      252.0000      132163.80      101190.90      0.0039811
      255.0000      143456.30      101190.90      -0.0420866
      258.0000      149111.40      101190.90      -0.1286669
      261.0000      178893.10      101190.90      0.1503563
      264.0000      138245.40      101190.90      -0.1453876
      267.0000      146187.40      101190.90      0.0943853
      270.0000      133548.50      101190.90      0.1196540
      273.0000      149211.90      101190.90      0.2323535
      276.0000      125652.50      101190.90      -0.0047674
      279.0000      124045.50      101190.90      -0.0786165
      282.0000      166771.80      101190.90      0.1365966
      285.0000      118660.20      101190.90      -0.0232026
      288.0000      128204.80      101190.90      0.0063870
      291.0000      138556.60      101190.90      -0.0158508
      294.0000      91887.80      101190.90      -0.1255145
      297.0000      109776.60      101190.90      -0.1676621
      300.0000      132953.00      101190.90      0.1368655
      303.0000      116186.60      101190.90      -0.1346667
      306.0000      102190.40      101190.90      -0.1693022
      309.0000      160287.80      101190.90      0.1169147
      312.0000      125310.80      101190.90      -0.0894923
      315.0000      109221.40      101190.90      -0.1290739
      318.0000      126909.20      101190.90      -0.0352730
      321.0000      134128.20      101190.90      0.0883558
      324.0000      107899.10      101190.90      -0.0452872
      327.0000      130023.00      101190.90      0.0475622
      330.0000      110785.40      101190.90      0.0219774
      333.0000      102299.40      101190.90      -0.1638415
      336.0000      124703.10      101190.90      0.0555564
      339.0000      99223.90      101190.90      -0.0676765
      342.0000      118112.20      101190.90      -0.0250436
      345.0000      118112.20      101190.90      0.0227243
      348.0000      96341.00      101190.90      0.0303120
      351.0000      94957.10      101190.90      -0.1083490
      354.0000      99137.60      101190.90      -0.0160642
      357.0000      112392.30      101190.90      0.0774314
      360.0000      78396.10      101190.90      -0.1828147
       8     121       19.5900     36.0000      1.00000      0.00000
      0.0000      84387.70      84389.30      -0.0672448
      3.0000      83784.30      84389.30      -0.0687399
      6.0000      81057.30      84389.30      -0.0287330
      9.0000      80479.90      84389.30      0.0161453
      12.0000      80614.50      84389.30      -0.0168743
      15.0000      77750.90      84389.30      -0.0298874
      18.0000      69676.40      84389.30      -0.0909176
      21.0000      49241.80      84389.30      -0.2245913
      24.0000      60419.90      84389.30      -0.1778155
      27.0000      67534.20      84389.30      -0.0460156
      30.0000      66763.20      84389.30      -0.0473245
      33.0000      63144.00      84389.30      -0.0374258
      36.0000      63144.00      84389.30      -0.0062258
      39.0000      70893.70      84389.30      0.0977728
      42.0000      73235.90      84389.30      0.1349372
      45.0000      66512.50      84389.30      0.0669841
      48.0000      72846.80      84389.30      0.1071868
      51.0000      74215.90      84389.30      0.1595724
      54.0000      75649.80      84389.30      0.1701904
      57.0000      58582.40      84389.30      0.0292232
      60.0000      69460.50      84389.30      0.1319278
      63.0000      62960.50      84389.30      0.0888088
      66.0000      61893.90      84389.30      0.0870543
      69.0000      67783.80      84389.30      0.1088675
      72.0000      55035.90      84389.30      0.0224654
      75.0000      55365.40      84389.30      0.0130963
      78.0000      44240.00      84389.30      -0.0898197
      81.0000      60066.30      84389.30      0.0544919
      84.0000      49950.20      84389.30      -0.0453898
      87.0000      50039.30      84389.30      -0.0272792
      90.0000      60637.70      84389.30      0.0426199
      93.0000      52504.80      84389.30      0.0031297
      96.0000      54847.90      84389.30      0.0017708
      99.0000      63225.70      84389.30      0.0968301
      102.0000      56299.90      84389.30      0.0197575
      105.0000      50597.60      84389.30      -0.0702428
      108.0000      55956.80      84389.30      -0.0094012
      111.0000      47973.50      84389.30      -0.1072194
      114.0000      55124.70      84389.30      -0.0586329
      117.0000      56529.80      84389.30      -0.0700382
      120.0000      59555.50      84389.30      -0.0326780
      123.0000      59116.90      84389.30      -0.0652291
      126.0000      63898.30      84389.30      -0.0493379
      129.0000      62798.80      84389.30      0.0724622
      132.0000      74218.60      84389.30      0.0525267
      135.0000      77107.40      84389.30      0.0932638
      138.0000      70581.30      84389.30      0.0485926
      141.0000      72565.60      84389.30      -0.0115978
      144.0000      71282.80      84389.30      0.0176314
      147.0000      77326.70      84389.30      0.0942859
      150.0000      87167.20      84389.30      0.0825970
      153.0000      73203.50      84389.30      -0.0237754
      156.0000      71231.20      84389.30      -0.0771261
      159.0000      69418.00      84389.30      -0.1087615
      162.0000      73070.50      84389.30      -0.0328068
      165.0000      84578.50      84389.30      0.0474448
      168.0000      68921.00      84389.30      -0.0191680
      171.0000      75766.70      84389.30      -0.0796085
      174.0000      75664.00      84389.30      -0.0542760
      177.0000      73855.10      84389.30      -0.0154794
      180.0000      78120.10      84389.30      -0.0672448
      183.0000      77048.50      84389.30      -0.0687399
      186.0000      85382.80      84389.30      -0.0287331
      189.0000      92598.00      84389.30      0.0161453
      192.0000      85167.60      84389.30      -0.0168743
      195.0000      84680.00      84389.30      -0.0298874
      198.0000      81904.40      84389.30      -0.0909176
      201.0000      81900.20      84389.30      -0.2245913
      204.0000      75168.80      84389.30      -0.1778155
      207.0000      89498.90      84389.30      -0.0460156
      210.0000      89159.70      84389.30      -0.0473245
      213.0000      95342.70      84389.30      -0.0374258
      216.0000      100588.30      84389.30      -0.0062258
      219.0000      108307.30      84389.30      0.0977728
      222.0000      111016.80      84389.30      0.1349372
      225.0000      107369.80      84389.30      0.0669841
      228.0000      103976.50      84389.30      0.1071868
      231.0000      111633.70      84389.30      0.1595724
      234.0000      110518.50      84389.30      0.1701904
      237.0000      111299.50      84389.30      0.0292232
      240.0000      112685.10      84389.30      0.1319278
      243.0000      115470.30      84389.30      0.0888088
      246.0000      117091.60      84389.30      0.0870543
      249.0000      110401.70      84389.30      0.1088674
      252.0000      116679.50      84389.30      0.0224654
      255.0000      114277.40      84389.30      0.0130963
      258.0000      114082.60      84389.30      -0.0898196
      261.0000      114994.10      84389.30      0.0544919
      264.0000      113589.00      84389.30      -0.0453898
      267.0000      118124.50      84389.30      -0.0272792
      270.0000      113263.90      84389.30      0.0426199
      273.0000      121509.60      84389.30      0.0031297
      276.0000      117348.40      84389.30      0.0017708
      279.0000      123165.90      84389.30      0.0968300
      282.0000      120358.20      84389.30      0.0197575
      285.0000      112015.50      84389.30      -0.0702429
      288.0000      116304.40      84389.30      -0.0094012
      291.0000      110295.40      84389.30      -0.1072194
      294.0000      108607.20      84389.30      -0.0586329
      297.0000      104339.90      84389.30      -0.0700382
      300.0000      108066.50      84389.30      -0.0326781
      303.0000      102490.80      84389.30      -0.0652291
      306.0000      98527.60      84389.30      -0.0493379
      309.0000      127789.80      84389.30      0.0724622
      312.0000      105158.90      84389.30      0.0525267
      315.0000      110089.60      84389.30      0.0932638
      318.0000      111580.10      84389.30      0.0485926
      321.0000      96384.40      84389.30      -0.0115978
      324.0000      104801.80      84389.30      0.0176314
      327.0000      111921.10      84389.30      0.0942859
      330.0000      95958.30      84389.30      0.0825970
      333.0000      94033.20      84389.30      -0.0237754
      336.0000      86100.80      84389.30      -0.0771261
      339.0000      82103.60      84389.30      -0.1087615
      342.0000      91349.90      84389.30      -0.0328068
      345.0000      91793.60      84389.30      0.0474448
      348.0000      96510.20      84389.30      -0.0191680
      351.0000      77408.40      84389.30      -0.0796085
      354.0000      80579.40      84389.30      -0.0542760
      357.0000      87024.30      84389.30      -0.0154795
      360.0000      78120.10      84389.30      -0.0672448
       9     121       19.5900     39.0000      1.00000      0.00000
      0.0000      84911.20      84626.90      -0.1325544
      3.0000      82178.20      84626.90      -0.1884039
      6.0000      83966.50      84626.90      -0.0317986
      9.0000      79465.70      84626.90      -0.0344049
      12.0000      78752.00      84626.90      -0.0635020
      15.0000      69997.20      84626.90      -0.0796078
      18.0000      65408.00      84626.90      -0.1348941
      21.0000      58416.50      84626.90      -0.2054247
      24.0000      64006.20      84626.90      -0.1602185
      27.0000      79807.00      84626.90      -0.0273953
      30.0000      72397.50      84626.90      -0.0250281
      33.0000      80502.50      84626.90      0.0469450
      36.0000      69234.50      84626.90      -0.0184757
      39.0000      79350.40      84626.90      0.0678326
      42.0000      83314.30      84626.90      0.1721371
      45.0000      83413.70      84626.90      0.1576642
      48.0000      79950.20      84626.90      0.1407348
      51.0000      83467.90      84626.90      0.2207344
      54.0000      78978.30      84626.90      0.1968833
      57.0000      83545.40      84626.90      0.2308363
      60.0000      74527.30      84626.90      0.1934773
      63.0000      75509.40      84626.90      0.1669052
      66.0000      67546.20      84626.90      0.1097124
      69.0000      67317.10      84626.90      0.1521760
      72.0000      69889.40      84626.90      0.1164272
      75.0000      57317.30      84626.90      0.0380092
      78.0000      49558.20      84626.90      -0.0564423
      81.0000      49558.20      84626.90      -0.0812712
      84.0000      51415.30      84626.90      -0.0916944
      87.0000      51567.50      84626.90      -0.0705467
      90.0000      57776.00      84626.90      -0.0040580
      93.0000      63164.70      84626.90      0.0581743
      96.0000      69434.10      84626.90      0.1043143
      99.0000      52514.80      84626.90      -0.0473336
      102.0000      51586.00      84626.90      -0.0522324
      105.0000      61031.40      84626.90      -0.0323450
      108.0000      54660.30      84626.90      -0.0181618
      111.0000      55537.60      84626.90      -0.1067995
      114.0000      64435.20      84626.90      -0.0331241
      117.0000      54919.60      84626.90      -0.0819459
      120.0000      58491.20      84626.90      -0.0710427
      123.0000      67434.80      84626.90      -0.0291826
      126.0000      66855.30      84626.90      -0.0279706
      129.0000      66090.70      84626.90      -0.0357678
      132.0000      87338.20      84626.90      0.1180800
      135.0000      78913.00      84626.90      0.0540281
      138.0000      72208.60      84626.90      0.0043961
      141.0000      75441.20      84626.90      -0.0128207
      144.0000      79723.80      84626.90      0.0860252
      147.0000      75511.30      84626.90      0.0199220
      150.0000      77294.00      84626.90      0.0687265
      153.0000      77019.80      84626.90      0.0673332
      156.0000      70535.50      84626.90      -0.0337024
      159.0000      71530.20      84626.90      -0.0465102
      162.0000      81345.00      84626.90      0.0120831
      165.0000      67312.00      84626.90      -0.0871657
      168.0000      67235.40      84626.90      -0.1469913
      171.0000      66788.40      84626.90      -0.1154796
      174.0000      72561.20      84626.90      -0.0966280
      177.0000      71874.30      84626.90      -0.0482110
      180.0000      70534.00      84626.90      -0.1325544
      183.0000      62105.80      84626.90      -0.1884039
      186.0000      86311.80      84626.90      -0.0317986
      189.0000      89242.00      84626.90      -0.0344049
      192.0000      83622.90      84626.90      -0.0635020
      195.0000      89235.10      84626.90      -0.0796078
      198.0000      83410.20      84626.90      -0.1348941
      201.0000      77748.70      84626.90      -0.2054247
      204.0000      78474.60      84626.90      -0.1602185
      207.0000      82403.80      84626.90      -0.0273953
      210.0000      91341.20      84626.90      -0.0250281
      213.0000      93105.80      84626.90      0.0469450
      216.0000      94931.40      84626.90      -0.0184757
      219.0000      96382.20      84626.90      0.0678326
      222.0000      110210.10      84626.90      0.1721371
      225.0000      106057.20      84626.90      0.1576642
      228.0000      107009.00      84626.90      0.1407348
      231.0000      116931.30      84626.90      0.2207344
      234.0000      118561.50      84626.90      0.1968833
      237.0000      117420.00      84626.90      0.2308363
      240.0000      124296.30      84626.90      0.1934773
      243.0000      116680.60      84626.90      0.1669052
      246.0000      118153.40      84626.90      0.1097124
      249.0000      127570.00      84626.90      0.1521760
      252.0000      115371.40      84626.90      0.1164272
      255.0000      121098.40      84626.90      0.0380092
      258.0000      114889.50      84626.90      -0.0564423
      261.0000      109786.60      84626.90      -0.0812712
      264.0000      104463.90      84626.90      -0.0916944
      267.0000      109156.30      84626.90      -0.0705467
      270.0000      112825.00      84626.90      -0.0040580
      273.0000      117166.80      84626.90      0.0581743
      276.0000      116530.50      84626.90      0.1043143
      279.0000      114297.90      84626.90      -0.0473336
      282.0000      115358.60      84626.90      -0.0522324
      285.0000      103551.00      84626.90      -0.0323450
      288.0000      118320.60      84626.90      -0.0181618
      291.0000      98072.40      84626.90      -0.1067996
      294.0000      99409.00      84626.90      -0.0331241
      297.0000      105423.80      84626.90      -0.0819459
      300.0000      102275.00      84626.90      -0.0710427
      303.0000      97154.70      84626.90      -0.0291827
      306.0000      98868.30      84626.90      -0.0279706
      309.0000      98868.30      84626.90      -0.0357678
      312.0000      98868.30      84626.90      0.1180800
      315.0000      98868.30      84626.90      0.0540281
      318.0000      98868.30      84626.90      0.0043961
      321.0000      91026.90      84626.90      -0.0128207
      324.0000      104760.10      84626.90      0.0860252
      327.0000      97418.10      84626.90      0.0199220
      330.0000      104155.70      84626.90      0.0687265
      333.0000      103707.30      84626.90      0.0673332
      336.0000      92263.40      84626.90      -0.0337024
      339.0000      88009.80      84626.90      -0.0465102
      342.0000      86422.10      84626.90      0.0120831
      345.0000      83586.30      84626.90      -0.0871657
      348.0000      72444.20      84626.90      -0.1469913
      351.0000      76744.00      84626.90      -0.1154796
      354.0000      72683.10      84626.90      -0.0966280
      357.0000      78944.00      84626.90      -0.0482110
      360.0000      70534.00      84626.90      -0.1325544
       10     121       19.5900     42.0000      1.00000      0.00000
      0.0000      69176.20      78875.90      -0.2068295
      3.0000      76459.60      78875.90      -0.1150884
      6.0000      71492.70      78875.90      -0.0936750
      9.0000      76519.20      78875.90      -0.0995491
      12.0000      61284.00      78875.90      -0.1843919
      15.0000      58937.00      78875.90      -0.1950626
      18.0000      61235.60      78875.90      -0.1854122
      21.0000      51835.10      78875.90      -0.1788490
      24.0000      62353.20      78875.90      -0.0682696
      27.0000      56578.30      78875.90      -0.1315134
      30.0000      58551.40      78875.90      -0.0477300
      33.0000      64357.60      78875.90      0.0358905
      36.0000      57136.40      78875.90      -0.0143174
      39.0000      64841.10      78875.90      0.0284704
      42.0000      72289.80      78875.90      0.1197348
      45.0000      75766.60      78875.90      0.2068179
      48.0000      80775.90      78875.90      0.2870187
      51.0000      72844.30      78875.90      0.2311194
      54.0000      73792.90      78875.90      0.2099523
      57.0000      78812.70      78875.90      0.3268032
      60.0000      58611.00      78875.90      0.1343180
      63.0000      64345.50      78875.90      0.1320743
      66.0000      52201.20      78875.90      0.0228113
      69.0000      55781.50      78875.90      0.0985265
      72.0000      47121.50      78875.90      0.0331164
      75.0000      55141.40      78875.90      0.1062571
      78.0000      48122.00      78875.90      0.0256561
      81.0000      47969.80      78875.90      -0.0553707
      84.0000      50558.20      78875.90      0.0562629
      87.0000      47302.80      78875.90      -0.0118333
      90.0000      44479.00      78875.90      -0.0461391
      93.0000      46189.40      78875.90      -0.0024690
      96.0000      55663.00      78875.90      0.0684927
      99.0000      54347.40      78875.90      0.1120780
      102.0000      41790.20      78875.90      -0.0526298
      105.0000      45528.10      78875.90      -0.0548538
      108.0000      48191.10      78875.90      -0.0594661
      111.0000      47456.50      78875.90      -0.0794021
      114.0000      51445.90      78875.90      -0.0113773
      117.0000      42378.60      78875.90      -0.0916408
      120.0000      54753.40      78875.90      -0.0053419
      123.0000      55655.70      78875.90      0.0098049
      126.0000      56779.20      78875.90      0.0147734
      129.0000      56779.20      78875.90      0.0116929
      132.0000      62388.80      78875.90      0.0438403
      135.0000      71599.50      78875.90      0.1931449
      138.0000      74514.20      78875.90      0.1727144
      141.0000      62445.00      78875.90      0.0579642
      144.0000      75318.50      78875.90      0.1611385
      147.0000      72193.90      78875.90      0.0901902
      150.0000      67059.10      78875.90      0.0743544
      153.0000      66585.90      78875.90      0.0509913
      156.0000      59907.00      78875.90      -0.0124845
      159.0000      58542.90      78875.90      -0.1174458
      162.0000      66816.30      78875.90      -0.0588946
      165.0000      57769.70      78875.90      -0.1350654
      168.0000      62468.90      78875.90      -0.1152213
      171.0000      54187.70      78875.90      -0.2174409
      174.0000      58822.50      78875.90      -0.1663764
      177.0000      69535.60      78875.90      -0.0980075
      180.0000      58404.00      78875.90      -0.2068295
      183.0000      64543.20      78875.90      -0.1150884
      186.0000      71464.30      78875.90      -0.0936750
      189.0000      64084.00      78875.90      -0.0995491
      192.0000      65394.50      78875.90      -0.1843919
      195.0000      65214.70      78875.90      -0.1950626
      198.0000      62981.20      78875.90      -0.1854122
      201.0000      74607.30      78875.90      -0.1788489
      204.0000      79117.20      78875.90      -0.0682696
      207.0000      74763.50      78875.90      -0.1315134
      210.0000      85775.10      78875.90      -0.0477300
      213.0000      91247.30      78875.90      0.0358905
      216.0000      92019.90      78875.90      -0.0143173
      219.0000      86810.30      78875.90      0.0284704
      222.0000      90428.10      78875.90      0.1197348
      225.0000      99622.70      78875.90      0.2068179
      228.0000      104886.20      78875.90      0.2870187
      231.0000      107012.90      78875.90      0.2311194
      234.0000      100156.70      78875.90      0.2099523
      237.0000      112767.70      78875.90      0.3268032
      240.0000      112668.20      78875.90      0.1343180
      243.0000      100661.70      78875.90      0.1320742
      246.0000      102575.10      78875.90      0.0228112
      249.0000      110765.50      78875.90      0.0985265
      252.0000      115368.90      78875.90      0.0331164
      255.0000      114122.80      78875.90      0.1062571
      258.0000      112550.20      78875.90      0.0256561
      261.0000      96372.90      78875.90      -0.0553707
      264.0000      114988.90      78875.90      0.0562629
      267.0000      108271.30      78875.90      -0.0118333
      270.0000      107828.00      78875.90      -0.0461391
      273.0000      114349.70      78875.90      -0.0024690
      276.0000      110177.80      78875.90      0.0684927
      279.0000      123536.50      78875.90      0.1120780
      282.0000      115876.10      78875.90      -0.0526298
      285.0000      108477.20      78875.90      -0.0548538
      288.0000      102968.20      78875.90      -0.0594661
      291.0000      101310.90      78875.90      -0.0794020
      294.0000      109023.70      78875.90      -0.0113773
      297.0000      111173.00      78875.90      -0.0916408
      300.0000      106163.70      78875.90      -0.0053419
      303.0000      108927.50      78875.90      0.0098048
      306.0000      109071.10      78875.90      0.0147734
      309.0000      109617.20      78875.90      0.0116929
      312.0000      107244.10      78875.90      0.0438403
      315.0000      123461.40      78875.90      0.1931449
      318.0000      115310.20      78875.90      0.1727144
      321.0000      113422.90      78875.90      0.0579642
      324.0000      114026.30      78875.90      0.1611385
      327.0000      105635.40      78875.90      0.0901902
      330.0000      111460.20      78875.90      0.0743544
      333.0000      108023.50      78875.90      0.0509913
      336.0000      105813.30      78875.90      -0.0124845
      339.0000      87362.60      78875.90      -0.1174458
      342.0000      87122.70      78875.90      -0.0588947
      345.0000      85105.40      78875.90      -0.1350654
      348.0000      82415.90      78875.90      -0.1152213
      351.0000      73988.90      78875.90      -0.2174409
      354.0000      76992.20      78875.90      -0.1663764
      357.0000      75792.10      78875.90      -0.0980075
      360.0000      58404.00      78875.90      -0.2068295
       11     121       19.5900     45.0000      1.00000      0.00000
      0.0000      70734.60      77479.60      -0.1934669
      3.0000      82307.00      77479.60      -0.0692698
      6.0000      79970.30      77479.60      -0.0961627
      9.0000      83813.40      77479.60      -0.0320100
      12.0000      64766.30      77479.60      -0.1087598
      15.0000      69885.90      77479.60      -0.1036321
      18.0000      76830.70      77479.60      -0.0905059
      21.0000      69243.70      77479.60      -0.0560504
      24.0000      71498.30      77479.60      -0.0420943
      27.0000      66875.30      77479.60      -0.0718353
      30.0000      68434.10      77479.60      -0.0254041
      33.0000      49873.50      77479.60      -0.1790783
      36.0000      63489.20      77479.60      -0.0247340
      39.0000      70596.90      77479.60      0.0293667
      42.0000      65037.60      77479.60      0.0172842
      45.0000      71484.00      77479.60      0.1067550
      48.0000      71484.00      77479.60      0.1242091
      51.0000      78749.80      77479.60      0.2401271
      54.0000      69025.20      77479.60      0.1432689
      57.0000      57541.90      77479.60      0.0624872
      60.0000      67156.90      77479.60      0.2003776
      63.0000      66973.20      77479.60      0.1429115
      66.0000      53436.60      77479.60      -0.0241316
      69.0000      47147.30      77479.60      0.1427038
      72.0000      49229.00      77479.60      -0.0086036
      75.0000      57299.20      77479.60      0.0908831
      78.0000      62240.50      77479.60      0.1731929
      81.0000      56748.00      77479.60      0.0692019
      84.0000      55164.30      77479.60      0.1084948
      87.0000      56685.20      77479.60      0.0889876
      90.0000      59971.40      77479.60      0.1528164
      93.0000      62304.80      77479.60      0.1610464
      96.0000      63812.90      77479.60      0.1888593
      99.0000      55857.80      77479.60      0.0665923
      102.0000      59314.40      77479.60      0.1169889
      105.0000      50278.90      77479.60      -0.0154807
      108.0000      49592.40      77479.60      -0.0652203
      111.0000      53832.90      77479.60      0.0384602
      114.0000      53975.20      77479.60      0.0135120
      117.0000      54151.20      77479.60      -0.0392129
      120.0000      53661.30      77479.60      -0.0312238
      123.0000      53814.20      77479.60      -0.0342460
      126.0000      51023.10      77479.60      -0.0790072
      129.0000      57396.20      77479.60      -0.0158384
      132.0000      56173.50      77479.60      -0.0041496
      135.0000      65949.30      77479.60      0.0571657
      138.0000      55197.90      77479.60      0.0447073
      141.0000      59969.90      77479.60      0.0261171
      144.0000      59452.90      77479.60      0.0240324
      147.0000      62412.50      77479.60      -0.0208761
      150.0000      60627.30      77479.60      -0.0210886
      153.0000      58394.00      77479.60      -0.0337142
      156.0000      52967.90      77479.60      -0.1613400
      159.0000      59511.30      77479.60      -0.1250004
      162.0000      53009.20      77479.60      -0.1705966
      165.0000      53106.50      77479.60      -0.1766667
      168.0000      61996.60      77479.60      -0.1037005
      171.0000      69249.70      77479.60      -0.0557668
      174.0000      60920.60      77479.60      -0.1197833
      177.0000      61554.50      77479.60      -0.0491866
      180.0000      63710.20      77479.60      -0.1934668
      183.0000      71743.90      77479.60      -0.0692698
      186.0000      68327.90      77479.60      -0.0961627
      189.0000      73396.40      77479.60      -0.0320100
      192.0000      78548.80      77479.60      -0.1087597
      195.0000      73043.70      77479.60      -0.1036321
      198.0000      66283.90      77479.60      -0.0905059
      201.0000      79081.40      77479.60      -0.0560504
      204.0000      77413.50      77479.60      -0.0420943
      207.0000      76563.70      77479.60      -0.0718353
      210.0000      81256.90      77479.60      -0.0254041
      213.0000      77789.10      77479.60      -0.1790784
      216.0000      85443.00      77479.60      -0.0247340
      219.0000      83620.10      77479.60      0.0293667
      222.0000      88304.90      77479.60      0.0172842
      225.0000      93564.40      77479.60      0.1067550
      228.0000      95449.50      77479.60      0.1242091
      231.0000      104007.00      77479.60      0.2401271
      234.0000      100710.70      77479.60      0.1432689
      237.0000      104205.50      77479.60      0.0624872
      240.0000      113156.90      77479.60      0.2003776
      243.0000      101492.60      77479.60      0.1429115
      246.0000      93078.20      77479.60      -0.0241316
      249.0000      137914.90      77479.60      0.1427037
      252.0000      103671.40      77479.60      -0.0086035
      255.0000      107891.50      77479.60      0.0908831
      258.0000      114780.70      77479.60      0.1731929
      261.0000      104629.80      77479.60      0.0692020
      264.0000      116027.00      77479.60      0.1084948
      267.0000      109288.30      77479.60      0.0889876
      270.0000      116194.30      77479.60      0.1528164
      273.0000      113705.50      77479.60      0.1610464
      276.0000      117037.90      77479.60      0.1888592
      279.0000      108446.50      77479.60      0.0665923
      282.0000      112672.90      77479.60      0.1169888
      285.0000      103968.00      77479.60      -0.0154807
      288.0000      95739.40      77479.60      -0.0652203
      291.0000      109582.10      77479.60      0.0384602
      294.0000      104940.60      77479.60      0.0135119
      297.0000      94583.00      77479.60      -0.0392129
      300.0000      97894.40      77479.60      -0.0312238
      303.0000      97719.70      77479.60      -0.0342460
      306.0000      94354.60      77479.60      -0.0790072
      309.0000      96415.60      77479.60      -0.0158384
      312.0000      101426.50      77479.60      -0.0041496
      315.0000      97661.10      77479.60      0.0571657
      318.0000      113240.70      77479.60      0.0447073
      321.0000      102216.90      77479.60      0.0261171
      324.0000      102753.00      77479.60      0.0240324
      327.0000      89975.50      77479.60      -0.0208761
      330.0000      92550.90      77479.60      -0.0210886
      333.0000      93165.50      77479.60      -0.0337142
      336.0000      77415.80      77479.60      -0.1613400
      339.0000      74843.80      77479.60      -0.1250004
      342.0000      74721.80      77479.60      -0.1705966
      345.0000      72834.40      77479.60      -0.1766667
      348.0000      73537.80      77479.60      -0.1037005
      351.0000      72147.60      77479.60      -0.0557668
      354.0000      69985.30      77479.60      -0.1197833
      357.0000      78225.40      77479.60      -0.0491866
      360.0000      63710.20      77479.60      -0.1934668
       12     121       19.5900     48.0000      1.00000      0.00000
      0.0000      78654.10      74122.40      -0.0951973
      3.0000      80738.20      74122.40      -0.0443310
      6.0000      80058.30      74122.40      -0.0408835
      9.0000      80342.20      74122.40      0.0523040
      12.0000      71015.60      74122.40      -0.0472846
      15.0000      71516.80      74122.40      -0.0878438
      18.0000      69023.70      74122.40      -0.0653077
      21.0000      74723.20      74122.40      -0.0354537
      24.0000      66961.10      74122.40      -0.0089385
      27.0000      59058.70      74122.40      -0.0691687
      30.0000      55650.70      74122.40      -0.0343087
      33.0000      60746.80      74122.40      -0.0100524
      36.0000      43847.30      74122.40      -0.1556329
      39.0000      56748.20      74122.40      -0.0296551
      42.0000      65335.90      74122.40      0.0436494
      45.0000      50118.30      74122.40      -0.0616991
      48.0000      55014.60      74122.40      0.0305706
      51.0000      72896.30      74122.40      0.2513977
      54.0000      50497.20      74122.40      -0.0188404
      57.0000      51442.40      74122.40      0.0198953
      60.0000      51230.30      74122.40      0.0874294
      63.0000      62502.80      74122.40      0.1597923
      66.0000      50717.60      74122.40      0.0178129
      69.0000      47630.00      74122.40      0.0194502
      72.0000      37477.60      74122.40      -0.0666057
      75.0000      47827.70      74122.40      0.0610862
      78.0000      50292.20      74122.40      0.1028592
      81.0000      49045.20      74122.40      0.1106890
      84.0000      41303.60      74122.40      0.0265298
      87.0000      44506.00      74122.40      0.0579533
      90.0000      57026.80      74122.40      0.1688266
      93.0000      59533.10      74122.40      0.1981969
      96.0000      71857.20      74122.40      0.3636350
      99.0000      66087.90      74122.40      0.2343205
      102.0000      60166.40      74122.40      0.1961267
      105.0000      58481.30      74122.40      0.1292118
      108.0000      50272.30      74122.40      0.0389835
      111.0000      49307.00      74122.40      0.0272176
      114.0000      44996.40      74122.40      -0.0429571
      117.0000      47300.50      74122.40      -0.0465568
      120.0000      43828.90      74122.40      -0.1105148
      123.0000      57979.70      74122.40      0.0094943
      126.0000      50705.80      74122.40      -0.0856781
      129.0000      52140.30      74122.40      -0.0451480
      132.0000      52741.20      74122.40      -0.0625822
      135.0000      57043.20      74122.40      0.0003704
      138.0000      59906.70      74122.40      -0.0434500
      141.0000      49007.80      74122.40      -0.1340966
      144.0000      51174.60      74122.40      -0.0974320
      147.0000      56340.00      74122.40      -0.0400578
      150.0000      54859.30      74122.40      -0.0591233
      153.0000      54428.40      74122.40      -0.0872742
      156.0000      53440.30      74122.40      -0.1132131
      159.0000      62929.20      74122.40      -0.0358854
      162.0000      50066.00      74122.40      -0.1693416
      165.0000      57489.10      74122.40      -0.0712733
      168.0000      54588.10      74122.40      -0.0388413
      171.0000      59772.10      74122.40      -0.0074801
      174.0000      63365.20      74122.40      -0.0049973
      177.0000      56129.10      74122.40      -0.0591390
      180.0000      66174.50      74122.40      -0.0951973
      183.0000      70557.90      74122.40      -0.0443309
      186.0000      70277.00      74122.40      -0.0408835
      189.0000      82694.50      74122.40      0.0523040
      192.0000      75300.60      74122.40      -0.0472846
      195.0000      66991.00      74122.40      -0.0878439
      198.0000      71785.60      74122.40      -0.0653077
      201.0000      68325.80      74122.40      -0.0354537
      204.0000      80422.20      74122.40      -0.0089385
      207.0000      79092.60      74122.40      -0.0691687
      210.0000      88360.80      74122.40      -0.0343087
      213.0000      84229.80      74122.40      -0.0100524
      216.0000      82446.40      74122.40      -0.1556329
      219.0000      84109.50      74122.40      -0.0296551
      222.0000      82235.30      74122.40      0.0436494
      225.0000      86758.00      74122.40      -0.0616991
      228.0000      94297.80      74122.40      0.0305706
      231.0000      102480.80      74122.40      0.2513977
      234.0000      91280.80      74122.40      -0.0188404
      237.0000      96021.00      74122.40      0.0198953
      240.0000      108569.80      74122.40      0.0874294
      243.0000      99798.20      74122.40      0.1597923
      246.0000      95189.00      74122.40      0.0178129
      249.0000      101401.90      74122.40      0.0194502
      252.0000      105382.00      74122.40      -0.0666057
      255.0000      108917.00      74122.40      0.0610862
      258.0000      112031.10      74122.40      0.1028592
      261.0000      116430.20      74122.40      0.1106890
      264.0000      116567.70      74122.40      0.0265298
      267.0000      116361.50      74122.40      0.0579533
      270.0000      112066.00      74122.40      0.1688266
      273.0000      113209.20      74122.40      0.1981969
      276.0000      120857.80      74122.40      0.3636350
      279.0000      108093.90      74122.40      0.2343205
      282.0000      114036.90      74122.40      0.1961266
      285.0000      105085.80      74122.40      0.1292118
      288.0000      105041.80      74122.40      0.0389835
      291.0000      105561.80      74122.40      0.0272176
      294.0000      101077.30      74122.40      -0.0429571
      297.0000      96531.70      74122.40      -0.0465568
      300.0000      91395.50      74122.40      -0.1105148
      303.0000      88756.10      74122.40      0.0094942
      306.0000      84733.40      74122.40      -0.0856782
      309.0000      90823.70      74122.40      -0.0451480
      312.0000      87108.70      74122.40      -0.0625821
      315.0000      92358.60      74122.40      0.0003704
      318.0000      79898.10      74122.40      -0.0434500
      321.0000      81491.40      74122.40      -0.1340966
      324.0000      85059.00      74122.40      -0.0974320
      327.0000      87665.70      74122.40      -0.0400578
      330.0000      86490.00      74122.40      -0.0591233
      333.0000      82018.70      74122.40      -0.0872741
      336.0000      78638.40      74122.40      -0.1132130
      339.0000      78694.40      74122.40      -0.0358853
      342.0000      72604.20      74122.40      -0.1693416
      345.0000      78452.40      74122.40      -0.0712733
      348.0000      85680.80      74122.40      -0.0388414
      351.0000      83114.90      74122.40      -0.0074801
      354.0000      78033.70      74122.40      -0.0049973
      357.0000      75735.50      74122.40      -0.0591390
      360.0000      66174.50      74122.40      -0.0951973
       13     121       19.5900     51.0000      1.00000      0.00000
      0.0000      69300.80      64575.30      -0.1191404
      3.0000      80527.30      64575.30      -0.0101916
      6.0000      87957.80      64575.30      0.1237088
      9.0000      83847.90      64575.30      0.1217208
      12.0000      71778.80      64575.30      0.0086709
      15.0000      62715.60      64575.30      -0.0822220
      18.0000      61209.80      64575.30      -0.0880841
      21.0000      51939.60      64575.30      -0.1222003
      24.0000      48373.20      64575.30      -0.1837634
      27.0000      45091.10      64575.30      -0.1627546
      30.0000      43799.10      64575.30      -0.1699025
      33.0000      50798.60      64575.30      -0.0841701
      36.0000      54050.90      64575.30      -0.0163861
      39.0000      49219.90      64575.30      -0.0867643
      42.0000      54032.60      64575.30      0.0252376
      45.0000      48090.20      64575.30      0.0176286
      48.0000      45812.80      64575.30      -0.0549303
      51.0000      44377.80      64575.30      -0.0179371
      54.0000      41240.50      64575.30      -0.0394083
      57.0000      38714.70      64575.30      -0.0372060
      60.0000      48520.70      64575.30      0.1074693
      63.0000      50440.50      64575.30      0.1086593
      66.0000      44837.00      64575.30      0.0532535
      69.0000      50676.10      64575.30      0.1588253
      72.0000      42466.50      64575.30      0.0472576
      75.0000      34379.00      64575.30      -0.0440208
      78.0000      43520.70      64575.30      0.0987368
      81.0000      43033.20      64575.30      0.0922566
      84.0000      41680.10      64575.30      0.0578375
      87.0000      45369.90      64575.30      0.0415116
      90.0000      54283.60      64575.30      0.2213913
      93.0000      53777.10      64575.30      0.2289353
      96.0000      60865.90      64575.30      0.3801575
      99.0000      62880.90      64575.30      0.3945321
      102.0000      76005.20      64575.30      0.5433545
      105.0000      45456.20      64575.30      0.1259971
      108.0000      38760.10      64575.30      -0.0026127
      111.0000      47865.20      64575.30      0.1158993
      114.0000      37043.10      64575.30      -0.0683841
      117.0000      27749.00      64575.30      -0.2255226
      120.0000      39741.80      64575.30      -0.0607502
      123.0000      49557.20      64575.30      0.0677405
      126.0000      45583.40      64575.30      0.0142718
      129.0000      43551.20      64575.30      -0.0453782
      132.0000      48434.40      64575.30      -0.0689026
      135.0000      46370.90      64575.30      -0.0225883
      138.0000      48660.60      64575.30      -0.0667771
      141.0000      45227.40      64575.30      -0.0576899
      144.0000      43945.50      64575.30      -0.0739367
      147.0000      48368.80      64575.30      -0.1061160
      150.0000      50205.90      64575.30      -0.0191270
      153.0000      47237.90      64575.30      -0.1033637
      156.0000      43984.50      64575.30      -0.1488948
      159.0000      39509.20      64575.30      -0.1455137
      162.0000      45658.50      64575.30      -0.1157734
      165.0000      51098.40      64575.30      -0.0495227
      168.0000      37831.20      64575.30      -0.1286884
      171.0000      52363.80      64575.30      -0.0877641
      174.0000      50735.60      64575.30      0.0068456
      177.0000      58959.90      64575.30      0.0112044
      180.0000      56017.30      64575.30      -0.1191404
      183.0000      59554.00      64575.30      -0.0101915
      186.0000      68900.40      64575.30      0.1237088
      189.0000      70669.60      64575.30      0.1217208
      192.0000      65505.30      64575.30      0.0086709
      195.0000      60880.00      64575.30      -0.0822220
      198.0000      60332.60      64575.30      -0.0880841
      201.0000      64579.40      64575.30      -0.1222003
      204.0000      58972.60      64575.30      -0.1837634
      207.0000      65001.10      64575.30      -0.1627546
      210.0000      64711.40      64575.30      -0.1699025
      213.0000      66993.80      64575.30      -0.0841701
      216.0000      71333.20      64575.30      -0.0163861
      219.0000      66386.40      64575.30      -0.0867643
      222.0000      75008.50      64575.30      0.0252376
      225.0000      82007.30      64575.30      0.0176286
      228.0000      73270.30      64575.30      -0.0549303
      231.0000      80641.10      64575.30      -0.0179370
      234.0000      81891.00      64575.30      -0.0394083
      237.0000      86190.90      64575.30      -0.0372060
      240.0000      90958.10      64575.30      0.1074693
      243.0000      86645.80      64575.30      0.1086593
      246.0000      87707.90      64575.30      0.0532534
      249.0000      93186.70      64575.30      0.1588253
      252.0000      90643.50      64575.30      0.0472576
      255.0000      91749.20      64575.30      -0.0440208
      258.0000      96876.40      64575.30      0.0987368
      261.0000      96776.20      64575.30      0.0922566
      264.0000      93801.20      64575.30      0.0578375
      267.0000      83043.50      64575.30      0.0415116
      270.0000      95303.20      64575.30      0.2213913
      273.0000      98164.80      64575.30      0.2289353
      276.0000      109826.50      64575.30      0.3801575
      279.0000      108706.70      64575.30      0.3945320
      282.0000      107344.40      64575.30      0.5433545
      285.0000      100767.70      64575.30      0.1259971
      288.0000      93133.20      64575.30      -0.0026127
      291.0000      95437.00      64575.30      0.1158993
      294.0000      86453.10      64575.30      -0.0683841
      297.0000      78602.90      64575.30      -0.2255226
      300.0000      83569.70      64575.30      -0.0607502
      303.0000      87134.70      64575.30      0.0677405
      306.0000      86455.00      64575.30      0.0142718
      309.0000      80799.30      64575.30      -0.0453782
      312.0000      68511.00      64575.30      -0.0689027
      315.0000      80686.80      64575.30      -0.0225883
      318.0000      69943.20      64575.30      -0.0667771
      321.0000      77740.80      64575.30      -0.0576899
      324.0000      77453.50      64575.30      -0.0739367
      327.0000      65535.40      64575.30      -0.1061160
      330.0000      76508.30      64575.30      -0.0191270
      333.0000      67934.40      64575.30      -0.1033637
      336.0000      65532.50      64575.30      -0.1488948
      339.0000      71634.50      64575.30      -0.1455137
      342.0000      67197.00      64575.30      -0.1157734
      345.0000      68962.20      64575.30      -0.0495227
      348.0000      72834.50      64575.30      -0.1286884
      351.0000      60576.10      64575.30      -0.0877641
      354.0000      72994.20      64575.30      0.0068456
      357.0000      63542.70      64575.30      0.0112044
      360.0000      56017.30      64575.30      -0.1191404
       14     121       19.5900     54.0000      1.00000      0.00000
      0.0000      68947.10      57938.10      -0.1374552
      3.0000      80585.50      57938.10      0.0835206
      6.0000      82409.80      57938.10      0.1163054
      9.0000      70730.10      57938.10      0.0242513
      12.0000      67775.60      57938.10      0.0392648
      15.0000      56111.60      57938.10      -0.1178883
      18.0000      51781.50      57938.10      -0.1013267
      21.0000      53015.00      57938.10      0.0279444
      24.0000      48898.40      57938.10      -0.1047076
      27.0000      41919.20      57938.10      -0.2002448
      30.0000      38008.90      57938.10      -0.1802511
      33.0000      47669.80      57938.10      -0.0567599
      36.0000      40644.10      57938.10      -0.0507496
      39.0000      35745.00      57938.10      -0.1383475
      42.0000      43556.60      57938.10      0.0195190
      45.0000      44675.20      57938.10      0.0441155
      48.0000      41266.50      57938.10      0.0131715
      51.0000      40736.60      57938.10      0.0516755
      54.0000      38290.30      57938.10      -0.0334881
      57.0000      45033.50      57938.10      0.1200035
      60.0000      27421.80      57938.10      -0.0849801
      63.0000      41846.90      57938.10      0.0157590
      66.0000      39017.00      57938.10      0.1005727
      69.0000      34803.20      57938.10      0.0689333
      72.0000      29636.80      57938.10      -0.0386592
      75.0000      39121.50      57938.10      0.0989841
      78.0000      39737.80      57938.10      0.1399777
      81.0000      29344.60      57938.10      0.0218430
      84.0000      5247.10      57938.10      -0.3951676
      87.0000      36097.40      57938.10      0.1097680
      90.0000      46267.80      57938.10      0.3024268
      93.0000      44722.30      57938.10      0.2853096
      96.0000      46803.10      57938.10      0.3326216
      99.0000      47235.30      57938.10      0.3606159
      102.0000      47903.20      57938.10      0.3409127
      105.0000      43594.20      57938.10      0.2051423
      108.0000      34676.20      57938.10      0.0414980
      111.0000      39183.50      57938.10      0.0711604
      114.0000      39183.50      57938.10      0.0322343
      117.0000      35012.30      57938.10      -0.0448909
      120.0000      38720.30      57938.10      0.0431526
      123.0000      38255.90      57938.10      -0.0565516
      126.0000      35490.50      57938.10      -0.0719558
      129.0000      33977.50      57938.10      -0.0912070
      132.0000      43470.20      57938.10      -0.0724447
      135.0000      42007.40      57938.10      -0.0413760
      138.0000      44483.50      57938.10      -0.0017768
      141.0000      48820.10      57938.10      0.0383531
      144.0000      34226.90      57938.10      -0.1453763
      147.0000      49813.50      57938.10      0.0581681
      150.0000      36149.70      57938.10      -0.1146792
      153.0000      40643.20      57938.10      -0.0892205
      156.0000      42484.50      57938.10      -0.0724005
      159.0000      45507.40      57938.10      -0.0510691
      162.0000      47280.20      57938.10      -0.0996724
      165.0000      38651.90      57938.10      -0.1665123
      168.0000      38541.00      57938.10      -0.1579133
      171.0000      44551.50      57938.10      0.0165824
      174.0000      48358.10      57938.10      0.0663414
      177.0000      48026.50      57938.10      -0.0418423
      180.0000      47322.90      57938.10      -0.1374552
      183.0000      62533.00      57938.10      0.0835206
      186.0000      63222.90      57938.10      0.1163054
      189.0000      60670.30      57938.10      0.0242513
      192.0000      63667.90      57938.10      0.0392648
      195.0000      54012.30      57938.10      -0.1178883
      198.0000      59329.10      57938.10      -0.1013267
      201.0000      73478.70      57938.10      0.0279444
      204.0000      59380.30      57938.10      -0.1047076
      207.0000      53938.60      57938.10      -0.2002448
      210.0000      60730.50      57938.10      -0.1802511
      213.0000      62693.20      57938.10      -0.0567599
      216.0000      72631.40      57938.10      -0.0507496
      219.0000      66564.80      57938.10      -0.1383475
      222.0000      75127.40      57938.10      0.0195190
      225.0000      75127.40      57938.10      0.0441155
      228.0000      75127.40      57938.10      0.0131715
      231.0000      80484.00      57938.10      0.0516755
      234.0000      70869.40      57938.10      -0.0334881
      237.0000      79089.20      57938.10      0.1200035
      240.0000      83896.20      57938.10      -0.0849801
      243.0000      66572.40      57938.10      0.0157591
      246.0000      85416.00      57938.10      0.1005727
      249.0000      89429.10      57938.10      0.0689333
      252.0000      83918.10      57938.10      -0.0386593
      255.0000      82448.60      57938.10      0.0989841
      258.0000      87126.00      57938.10      0.1399778
      261.0000      93833.10      57938.10      0.0218430
      264.0000      86727.70      57938.10      -0.3951676
      267.0000      91112.10      57938.10      0.1097680
      270.0000      97101.80      57938.10      0.3024268
      273.0000      98694.00      57938.10      0.2853097
      276.0000      101848.60      57938.10      0.3326216
      279.0000      106204.60      57938.10      0.3606159
      282.0000      102186.40      57938.10      0.3409127
      285.0000      91453.10      57938.10      0.2051423
      288.0000      87225.50      57938.10      0.0414980
      291.0000      82124.70      57938.10      0.0711605
      294.0000      76767.40      57938.10      0.0322343
      297.0000      74779.60      57938.10      -0.0448908
      300.0000      81490.00      57938.10      0.0431526
      303.0000      67524.60      57938.10      -0.0565517
      306.0000      71716.90      57938.10      -0.0719558
      309.0000      72369.20      57938.10      -0.0912069
      312.0000      57345.60      57938.10      -0.0724447
      315.0000      65606.50      57938.10      -0.0413759
      318.0000      67573.60      57938.10      -0.0017768
      321.0000      66412.30      57938.10      0.0383531
      324.0000      64647.90      57938.10      -0.1453763
      327.0000      68191.30      57938.10      0.0581682
      330.0000      65079.20      57938.10      -0.1146792
      333.0000      61419.50      57938.10      -0.0892205
      336.0000      60391.00      57938.10      -0.0724005
      339.0000      58327.30      57938.10      -0.0510691
      342.0000      49602.90      57938.10      -0.0996723
      345.0000      50559.40      57938.10      -0.1665123
      348.0000      50050.10      57938.10      -0.1579133
      351.0000      60031.80      57938.10      0.0165824
      354.0000      58758.70      57938.10      0.0663414
      357.0000      46495.70      57938.10      -0.0418422
      360.0000      47322.90      57938.10      -0.1374552
       15     121       19.5900     57.0000      1.00000      0.00000
      0.0000      55776.40      48886.60      -0.0739984
      3.0000      56295.30      48886.60      -0.0442655
      6.0000      60531.60      48886.60      -0.0241942
      9.0000      60531.60      48886.60      0.0327692
      12.0000      50334.60      48886.60      -0.0009006
      15.0000      48741.50      48886.60      -0.0685687
      18.0000      50132.70      48886.60      -0.0117799
      21.0000      41614.80      48886.60      -0.1056047
      24.0000      40577.90      48886.60      -0.1317711
      27.0000      38699.70      48886.60      -0.1568085
      30.0000      37704.80      48886.60      -0.1175194
      33.0000      40342.80      48886.60      -0.0640103
      36.0000      32347.80      48886.60      -0.1548556
      39.0000      35862.20      48886.60      -0.1576604
      42.0000      38469.80      48886.60      -0.0112234
      45.0000      38629.30      48886.60      -0.0023076
      48.0000      45495.30      48886.60      0.1326693
      51.0000      41955.20      48886.60      0.1124877
      54.0000      40671.80      48886.60      0.1218394
      57.0000      36708.50      48886.60      0.0843486
      60.0000      38847.20      48886.60      0.0569153
      63.0000      39613.90      48886.60      0.0942299
      66.0000      31948.00      48886.60      0.0200438
      69.0000      29725.90      48886.60      -0.0038343
      72.0000      33237.30      48886.60      0.0102156
      75.0000      34395.90      48886.60      0.0671034
      78.0000      34175.70      48886.60      0.0911076
      81.0000      29045.80      48886.60      -0.0018545
      84.0000      33957.80      48886.60      0.0804916
      87.0000      36552.50      48886.60      0.1620815
      90.0000      38415.90      48886.60      0.1881757
      93.0000      31138.50      48886.60      -0.0035620
      96.0000      39040.90      48886.60      0.1466464
      99.0000      43244.20      48886.60      0.2346384
      102.0000      40732.70      48886.60      0.1667074
      105.0000      28131.20      48886.60      -0.0430117
      108.0000      39308.00      48886.60      0.1152944
      111.0000      38603.60      48886.60      0.1586471
      114.0000      27674.30      48886.60      -0.0857086
      117.0000      34008.90      48886.60      -0.0882693
      120.0000      36109.50      48886.60      -0.0313372
      123.0000      39103.20      48886.60      0.0394482
      126.0000      32135.40      48886.60      -0.0675285
      129.0000      35329.90      48886.60      -0.0296068
      132.0000      39170.60      48886.60      -0.0255814
      135.0000      38599.60      48886.60      -0.0506820
      138.0000      41094.40      48886.60      0.0435952
      141.0000      40691.70      48886.60      0.0063431
      144.0000      39593.70      48886.60      0.0751985
      147.0000      42061.90      48886.60      0.0213900
      150.0000      35447.30      48886.60      -0.1236015
      153.0000      31474.60      48886.60      -0.1783519
      156.0000      50411.20      48886.60      0.0553437
      159.0000      40097.40      48886.60      -0.0740084
      162.0000      32860.10      48886.60      -0.1867832
      165.0000      38029.20      48886.60      -0.0782009
      168.0000      38046.40      48886.60      -0.0496341
      171.0000      36597.50      48886.60      -0.0351056
      174.0000      40217.00      48886.60      0.0056939
      177.0000      43005.50      48886.60      0.0825123
      180.0000      42568.50      48886.60      -0.0739984
      183.0000      44105.30      48886.60      -0.0442655
      186.0000      41428.80      48886.60      -0.0241942
      189.0000      45863.70      48886.60      0.0327692
      192.0000      51151.20      48886.60      -0.0009006
      195.0000      45092.30      48886.60      -0.0685687
      198.0000      48534.30      48886.60      -0.0117798
      201.0000      47195.70      48886.60      -0.1056047
      204.0000      44885.30      48886.60      -0.1317711
      207.0000      43686.80      48886.60      -0.1568085
      210.0000      48431.90      48886.60      -0.1175194
      213.0000      50180.70      48886.60      -0.0640103
      216.0000      50135.20      48886.60      -0.1548556
      219.0000      44364.00      48886.60      -0.1576604
      222.0000      56526.60      48886.60      -0.0112234
      225.0000      56654.20      48886.60      -0.0023077
      228.0000      61021.90      48886.60      0.1326693
      231.0000      63517.30      48886.60      0.1124877
      234.0000      66100.00      48886.60      0.1218394
      237.0000      67775.90      48886.60      0.0843486
      240.0000      60349.00      48886.60      0.0569153
      243.0000      63074.10      48886.60      0.0942299
      246.0000      67466.50      48886.60      0.0200438
      249.0000      68467.40      48886.60      -0.0038343
      252.0000      63554.10      48886.60      0.0102156
      255.0000      68387.30      48886.60      0.0671034
      258.0000      71816.90      48886.60      0.0911077
      261.0000      70077.80      48886.60      -0.0018545
      264.0000      71050.50      48886.60      0.0804916
      267.0000      76531.10      48886.60      0.1620815
      270.0000      76415.50      48886.60      0.1881757
      273.0000      66481.00      48886.60      -0.0035620
      276.0000      70444.10      48886.60      0.1466464
      279.0000      73873.70      48886.60      0.2346384
      282.0000      70534.10      48886.60      0.1667074
      285.0000      68679.60      48886.60      -0.0430118
      288.0000      67708.60      48886.60      0.1152944
      291.0000      75241.70      48886.60      0.1586471
      294.0000      65145.50      48886.60      -0.0857086
      297.0000      53191.80      48886.60      -0.0882693
      300.0000      57106.40      48886.60      -0.0313372
      303.0000      61208.10      48886.60      0.0394482
      306.0000      60725.10      48886.60      -0.0675285
      309.0000      60256.50      48886.60      -0.0296068
      312.0000      54536.50      48886.60      -0.0255813
      315.0000      52892.70      48886.60      -0.0506820
      318.0000      60871.50      48886.60      0.0435952
      321.0000      57361.70      48886.60      0.0063430
      324.0000      67745.60      48886.60      0.0751985
      327.0000      57678.70      48886.60      0.0213900
      330.0000      50622.50      48886.60      -0.1236015
      333.0000      50039.90      48886.60      -0.1783519
      336.0000      50284.60      48886.60      0.0553437
      339.0000      49844.00      48886.60      -0.0740084
      342.0000      46707.40      48886.60      -0.1867832
      345.0000      51607.30      48886.60      -0.0782009
      348.0000      54131.60      48886.60      -0.0496341
      351.0000      56625.40      48886.60      -0.0351056
      354.0000      55814.50      48886.60      0.0056939
      357.0000      59319.80      48886.60      0.0825123
      360.0000      42568.50      48886.60      -0.0739984
       16     121       19.5900     60.0000      1.00000      0.00000
      0.0000      50029.00      45451.10      -0.1396517
      3.0000      50433.20      45451.10      -0.1638498
      6.0000      44552.60      45451.10      -0.1733460
      9.0000      38709.10      45451.10      -0.1699077
      12.0000      38301.50      45451.10      -0.1331007
      15.0000      39001.40      45451.10      -0.1315794
      18.0000      44581.70      45451.10      -0.0934605
      21.0000      41759.10      45451.10      0.0958406
      24.0000      37276.80      45451.10      -0.1905416
      27.0000      42586.50      45451.10      -0.0476659
      30.0000      36267.00      45451.10      -0.1018513
      33.0000      32548.20      45451.10      -0.0430570
      36.0000      30726.60      45451.10      -0.1160303
      39.0000      30320.10      45451.10      -0.1113726
      42.0000      41314.90      45451.10      0.1247482
      45.0000      33879.70      45451.10      0.0231862
      48.0000      37537.40      45451.10      0.1164320
      51.0000      38944.80      45451.10      0.1436984
      54.0000      40505.80      45451.10      0.2306900
      57.0000      41186.50      45451.10      0.2569607
      60.0000      40754.60      45451.10      0.2619562
      63.0000      35347.20      45451.10      0.0725679
      66.0000      29272.80      45451.10      0.0257659
      69.0000      31083.70      45451.10      0.0951121
      72.0000      34032.30      45451.10      0.1392438
      75.0000      29755.40      45451.10      0.0439483
      78.0000      29755.40      45451.10      0.1081250
      81.0000      33801.40      45451.10      0.2006833
      84.0000      37094.40      45451.10      0.2485443
      87.0000      27348.70      45451.10      0.0605190
      90.0000      28005.70      45451.10      -0.0015936
      93.0000      33324.20      45451.10      0.1681794
      96.0000      33470.00      45451.10      0.1977934
      99.0000      32845.60      45451.10      0.1706321
      102.0000      29628.80      45451.10      0.0760086
      105.0000      36000.80      45451.10      0.1432142
      108.0000      33350.50      45451.10      0.0763449
      111.0000      38488.50      45451.10      0.1629690
      114.0000      30691.20      45451.10      0.0468209
      117.0000      27574.20      45451.10      -0.0913383
      120.0000      29365.70      45451.10      -0.0591401
      123.0000      34419.30      45451.10      -0.0146054
      126.0000      27395.40      45451.10      -0.1161471
      129.0000      29282.40      45451.10      -0.1058871
      132.0000      29532.50      45451.10      -0.0959850
      135.0000      39086.30      45451.10      0.0565520
      138.0000      38429.40      45451.10      0.0160941
      141.0000      38855.40      45451.10      0.0257386
      144.0000      33616.60      45451.10      -0.0320317
      147.0000      32595.60      45451.10      -0.0591833
      150.0000      41740.20      45451.10      -0.0133745
      153.0000      23095.90      45451.10      -0.2755152
      156.0000      24902.00      45451.10      -0.2677307
      159.0000      37475.80      45451.10      -0.1267541
      162.0000      37475.80      45451.10      -0.0830234
      165.0000      38647.80      45451.10      -0.0290141
      168.0000      33281.30      45451.10      -0.0903145
      171.0000      37934.20      45451.10      -0.0553530
      174.0000      39254.50      45451.10      0.0489192
      177.0000      38668.30      45451.10      -0.0088173
      180.0000      35630.30      45451.10      -0.1396517
      183.0000      32038.20      45451.10      -0.1638498
      186.0000      35516.90      45451.10      -0.1733460
      189.0000      40663.60      45451.10      -0.1699077
      192.0000      43901.60      45451.10      -0.1331007
      195.0000      42530.20      45451.10      -0.1315794
      198.0000      39017.70      45451.10      -0.0934605
      201.0000      60460.90      45451.10      0.0958406
      204.0000      35850.30      45451.10      -0.1905416
      207.0000      42639.10      45451.10      -0.0476659
      210.0000      44508.40      45451.10      -0.1018513
      213.0000      55294.40      45451.10      -0.0430570
      216.0000      49448.20      45451.10      -0.1160303
      219.0000      49913.10      45451.10      -0.1113726
      222.0000      57490.10      45451.10      0.1247482
      225.0000      57663.60      45451.10      0.0231861
      228.0000      61127.70      45451.10      0.1164320
      231.0000      60907.40      45451.10      0.1436984
      234.0000      67287.80      45451.10      0.2306900
      237.0000      68309.20      45451.10      0.2569607
      240.0000      69055.70      45451.10      0.2619562
      243.0000      56755.60      45451.10      0.0725679
      246.0000      63156.70      45451.10      0.0257659
      249.0000      67565.10      45451.10      0.0951120
      252.0000      66545.30      45451.10      0.1392438
      255.0000      63953.20      45451.10      0.0439483
      258.0000      71866.40      45451.10      0.1081250
      261.0000      74589.70      45451.10      0.2006833
      264.0000      73488.70      45451.10      0.2485442
      267.0000      71799.30      45451.10      0.0605190
      270.0000      62909.20      45451.10      -0.0015936
      273.0000      72781.60      45451.10      0.1681794
      276.0000      76618.80      45451.10      0.1977934
      279.0000      75082.90      45451.10      0.1706320
      282.0000      70704.60      45451.10      0.0760086
      285.0000      66056.50      45451.10      0.1432142
      288.0000      63950.70      45451.10      0.0763449
      291.0000      64706.50      45451.10      0.1629690
      294.0000      66903.30      45451.10      0.0468210
      297.0000      56654.60      45451.10      -0.0913383
      300.0000      57535.80      45451.10      -0.0591401
      303.0000      53785.50      45451.10      -0.0146054
      306.0000      55192.30      45451.10      -0.1161471
      309.0000      53315.90      45451.10      -0.1058872
      312.0000      54353.00      45451.10      -0.0959850
      315.0000      56051.40      45451.10      0.0565520
      318.0000      52927.30      45451.10      0.0160941
      321.0000      53678.00      45451.10      0.0257386
      324.0000      55544.90      45451.10      -0.0320317
      327.0000      54035.80      45451.10      -0.0591833
      330.0000      45753.50      45451.10      -0.0133745
      333.0000      43937.00      45451.10      -0.2755152
      336.0000      41904.60      45451.10      -0.2677307
      339.0000      39703.40      45451.10      -0.1267541
      342.0000      43624.80      45451.10      -0.0830234
      345.0000      46779.10      45451.10      -0.0290141
      348.0000      46198.70      45451.10      -0.0903145
      351.0000      43443.80      45451.10      -0.0553530
      354.0000      49754.10      45451.10      0.0489192
      357.0000      44127.10      45451.10      -0.0088174
      360.0000      35630.30      45451.10      -0.1396517
       17     121       19.5900     63.0000      1.00000      0.00000
      0.0000      41313.60      40447.50      -0.2107873
      3.0000      38915.30      40447.50      -0.2238075
      6.0000      40624.80      40447.50      -0.1741486
      9.0000      37887.80      40447.50      -0.1964560
      12.0000      33517.90      40447.50      -0.1884349
      15.0000      36122.20      40447.50      -0.2073672
      18.0000      37463.80      40447.50      -0.1540611
      21.0000      35080.20      40447.50      -0.1141523
      24.0000      36569.30      40447.50      -0.0559143
      27.0000      38334.70      40447.50      -0.0336337
      30.0000      37314.80      40447.50      0.0040049
      33.0000      38694.90      40447.50      0.0073891
      36.0000      34885.70      40447.50      0.0138435
      39.0000      30254.40      40447.50      -0.0067831
      42.0000      31256.60      40447.50      -0.0493107
      45.0000      34838.90      40447.50      0.0960833
      48.0000      34344.20      40447.50      0.0780390
      51.0000      56276.50      40447.50      0.5190364
      54.0000      35274.30      40447.50      0.1608222
      57.0000      30839.40      40447.50      0.2140763
      60.0000      28548.80      40447.50      0.0719854
      63.0000      28657.60      40447.50      0.1065528
      66.0000      31527.30      40447.50      0.1739528
      69.0000      30785.60      40447.50      0.1316958
      72.0000      32124.20      40447.50      0.1696142
      75.0000      27072.40      40447.50      0.1480055
      78.0000      26721.00      40447.50      0.1496632
      81.0000      24775.90      40447.50      0.0609316
      84.0000      28854.00      40447.50      0.1826406
      87.0000      26000.50      40447.50      0.1145409
      90.0000      23390.20      40447.50      0.0197295
      93.0000      14234.60      40447.50      -0.1170495
      96.0000      25882.00      40447.50      0.0893009
      99.0000      34203.80      40447.50      0.2705212
      102.0000      22978.20      40447.50      0.0520052
      105.0000      22912.20      40447.50      -0.0016467
      108.0000      20553.90      40447.50      -0.0938060
      111.0000      22164.90      40447.50      0.0017369
      114.0000      27600.70      40447.50      0.0529637
      117.0000      27874.20      40447.50      0.0829012
      120.0000      29686.50      40447.50      0.0595984
      123.0000      28527.40      40447.50      -0.0044916
      126.0000      31907.20      40447.50      0.0940585
      129.0000      25881.60      40447.50      -0.0840124
      132.0000      23052.00      40447.50      -0.1269643
      135.0000      27768.80      40447.50      -0.0843122
      138.0000      32771.20      40447.50      0.2865595
      141.0000      30127.00      40447.50      -0.0047377
      144.0000      32230.30      40447.50      0.0315094
      147.0000      29172.00      40447.50      -0.0484306
      150.0000      30880.70      40447.50      -0.0910154
      153.0000      26394.90      40447.50      -0.1655133
      156.0000      27900.20      40447.50      -0.1459403
      159.0000      30138.30      40447.50      -0.0991494
      162.0000      35678.50      40447.50      0.0382935
      165.0000      32807.70      40447.50      -0.0816997
      168.0000      30501.80      40447.50      -0.1147791
      171.0000      32619.90      40447.50      -0.0208105
      174.0000      28915.70      40447.50      -0.1493628
      177.0000      33071.90      40447.50      -0.1274609
      180.0000      29302.40      40447.50      -0.2107873
      183.0000      29493.10      40447.50      -0.2238074
      186.0000      31270.40      40447.50      -0.1741486
      189.0000      31112.50      40447.50      -0.1964560
      192.0000      35206.90      40447.50      -0.1884349
      195.0000      30259.60      40447.50      -0.2073672
      198.0000      32495.70      40447.50      -0.1540611
      201.0000      37735.30      40447.50      -0.1141523
      204.0000      40261.90      40447.50      -0.0559143
      207.0000      39069.30      40447.50      -0.0336337
      210.0000      42777.40      40447.50      0.0040049
      213.0000      40074.70      40447.50      0.0073891
      216.0000      45061.80      40447.50      0.0138435
      219.0000      49187.00      40447.50      -0.0067831
      222.0000      42649.50      40447.50      -0.0493107
      225.0000      50120.20      40447.50      0.0960832
      228.0000      48177.20      40447.50      0.0780390
      231.0000      52217.00      40447.50      0.5190364
      234.0000      52960.40      40447.50      0.1608222
      237.0000      66161.70      40447.50      0.2140763
      240.0000      55294.00      40447.50      0.0719854
      243.0000      58198.00      40447.50      0.1065528
      246.0000      58895.90      40447.50      0.1739528
      249.0000      55477.10      40447.50      0.1316958
      252.0000      56256.30      40447.50      0.1696142
      255.0000      64869.50      40447.50      0.1480054
      258.0000      65774.80      40447.50      0.1496632
      261.0000      60442.20      40447.50      0.0609316
      264.0000      64604.80      40447.50      0.1826406
      267.0000      63810.20      40447.50      0.1145409
      270.0000      59532.20      40447.50      0.0197295
      273.0000      65890.40      40447.50      -0.1170495
      276.0000      62162.50      40447.50      0.0893009
      279.0000      63643.60      40447.50      0.2705211
      282.0000      65570.10      40447.50      0.0520052
      285.0000      60119.90      40447.50      -0.0016467
      288.0000      55552.70      40447.50      -0.0938060
      291.0000      63133.10      40447.50      0.0017369
      294.0000      57366.00      40447.50      0.0529637
      297.0000      60754.00      40447.50      0.0829011
      300.0000      54932.20      40447.50      0.0595984
      303.0000      50932.90      40447.50      -0.0044916
      306.0000      55556.30      40447.50      0.0940585
      309.0000      48736.70      40447.50      -0.0840125
      312.0000      50020.90      40447.50      -0.1269643
      315.0000      46085.70      40447.50      -0.0843122
      318.0000      76706.70      40447.50      0.2865595
      321.0000      51097.10      40447.50      -0.0047377
      324.0000      51578.20      40447.50      0.0315094
      327.0000      48751.90      40447.50      -0.0484306
      330.0000      41934.70      40447.50      -0.0910154
      333.0000      41621.00      40447.50      -0.1655133
      336.0000      41249.40      40447.50      -0.1459403
      339.0000      42393.80      40447.50      -0.0991494
      342.0000      47365.50      40447.50      0.0382935
      345.0000      40005.70      40447.50      -0.0816997
      348.0000      39566.00      40447.50      -0.1147791
      351.0000      44424.40      40447.50      -0.0208105
      354.0000      37232.40      40447.50      -0.1493628
      357.0000      33857.30      40447.50      -0.1274609
      360.0000      29302.40      40447.50      -0.2107873
       18     121       19.5900     66.0000      1.00000      0.00000
      0.0000      28025.00      33970.30      -0.2946484
      3.0000      34826.30      33970.30      -0.2030772
      6.0000      37964.00      33970.30      -0.1190310
      9.0000      38594.20      33970.30      -0.0719174
      12.0000      29153.20      33970.30      -0.1902382
      15.0000      22826.10      33970.30      -0.3095596
      18.0000      30016.50      33970.30      -0.0915503
      21.0000      29876.30      33970.30      -0.0720428
      24.0000      31543.80      33970.30      -0.0137802
      27.0000      33843.90      33970.30      -0.0070846
      30.0000      35044.20      33970.30      0.0491436
      33.0000      36830.90      33970.30      0.1403479
      36.0000      33757.30      33970.30      0.0811974
      39.0000      26109.60      33970.30      -0.0740361
      42.0000      25971.30      33970.30      -0.0968947
      45.0000      29223.50      33970.30      0.0128685
      48.0000      28376.60      33970.30      0.0414530
      51.0000      30257.10      33970.30      0.3020740
      54.0000      27405.20      33970.30      0.1365701
      57.0000      31100.50      33970.30      0.1258846
      60.0000      20997.70      33970.30      -0.0663894
      63.0000      23452.00      33970.30      -0.0050142
      66.0000      31190.60      33970.30      0.2357989
      69.0000      26621.30      33970.30      0.2394932
      72.0000      29760.60      33970.30      0.3123368
      75.0000      24562.00      33970.30      0.1813014
      78.0000      21689.80      33970.30      0.0804366
      81.0000      25653.50      33970.30      0.2081504
      84.0000      17653.60      33970.30      -0.0242221
      87.0000      21680.80      33970.30      0.1009824
      90.0000      20140.50      33970.30      0.0169029
      93.0000      20396.80      33970.30      0.0516288
      96.0000      25544.00      33970.30      0.2056857
      99.0000      24820.00      33970.30      0.1466909
      102.0000      21564.80      33970.30      0.0392085
      105.0000      28955.20      33970.30      0.1724951
      108.0000      17200.00      33970.30      -0.1078779
      111.0000      21772.70      33970.30      -0.0061815
      114.0000      22477.80      33970.30      0.0659916
      117.0000      21859.60      33970.30      0.0221981
      120.0000      29068.20      33970.30      0.1782544
      123.0000      27201.70      33970.30      0.1432978
      126.0000      32035.50      33970.30      0.2152242
      129.0000      24267.10      33970.30      0.0345324
      132.0000      22263.10      33970.30      -0.1042696
      135.0000      20582.90      33970.30      -0.1449428
      138.0000      21724.70      33970.30      -0.0725486
      141.0000      24126.30      33970.30      -0.0871843
      144.0000      29039.50      33970.30      0.0364363
      147.0000      23072.50      33970.30      -0.1094959
      150.0000      24503.00      33970.30      -0.1199230
      153.0000      23246.10      33970.30      -0.0752171
      156.0000      22746.70      33970.30      -0.1614846
      159.0000      29174.20      33970.30      -0.0473862
      162.0000      30789.40      33970.30      0.0324205
      165.0000      30783.90      33970.30      0.0276308
      168.0000      24949.80      33970.30      0.0004462
      171.0000      23234.20      33970.30      -0.1354428
      174.0000      19653.30      33970.30      -0.2871478
      177.0000      17891.60      33970.30      -0.2625254
      180.0000      24017.10      33970.30      -0.2946484
      183.0000      24072.30      33970.30      -0.2030772
      186.0000      26336.60      33970.30      -0.1190310
      189.0000      28197.10      33970.30      -0.0719174
      192.0000      28237.70      33970.30      -0.1902382
      195.0000      25663.60      33970.30      -0.3095596
      198.0000      33231.90      33970.30      -0.0915503
      201.0000      34206.80      33970.30      -0.0720428
      204.0000      35926.40      33970.30      -0.0137802
      207.0000      32857.70      33970.30      -0.0070846
      210.0000      34702.10      33970.30      0.0491436
      213.0000      38395.10      33970.30      0.1403479
      216.0000      37101.80      33970.30      0.0811974
      219.0000      35140.90      33970.30      -0.0740361
      222.0000      32870.20      33970.30      -0.0968948
      225.0000      35964.80      33970.30      0.0128685
      228.0000      38981.50      33970.30      0.0414530
      231.0000      56882.60      33970.30      0.3020741
      234.0000      47416.50      33970.30      0.1365701
      237.0000      39217.00      33970.30      0.1258846
      240.0000      40994.70      33970.30      -0.0663894
      243.0000      41300.60      33970.30      -0.0050142
      246.0000      46803.10      33970.30      0.2357989
      249.0000      55945.30      33970.30      0.2394932
      252.0000      55784.10      33970.30      0.3123368
      255.0000      54710.50      33970.30      0.1813014
      258.0000      51647.50      33970.30      0.0804366
      261.0000      54779.00      33970.30      0.2081504
      264.0000      50946.80      33970.30      -0.0242221
      267.0000      53802.70      33970.30      0.1009824
      270.0000      49615.10      33970.30      0.0169029
      273.0000      52479.10      33970.30      0.0516287
      276.0000      55728.70      33970.30      0.2056857
      279.0000      52185.20      33970.30      0.1466909
      282.0000      49658.50      33970.30      0.0392084
      285.0000      46443.90      33970.30      0.1724951
      288.0000      46073.10      33970.30      -0.1078779
      291.0000      46138.70      33970.30      -0.0061815
      294.0000      51757.20      33970.30      0.0659917
      297.0000      49397.90      33970.30      0.0221981
      300.0000      49576.00      33970.30      0.1782543
      303.0000      50654.70      33970.30      0.1432978
      306.0000      48315.20      33970.30      0.2152242
      309.0000      47362.30      33970.30      0.0345323
      312.0000      39005.60      33970.30      -0.1042697
      315.0000      38755.70      33970.30      -0.1449428
      318.0000      43346.20      33970.30      -0.0725486
      321.0000      38155.60      33970.30      -0.0871843
      324.0000      40882.70      33970.30      0.0364363
      327.0000      38371.20      33970.30      -0.1094959
      330.0000      35369.90      33970.30      -0.1199230
      333.0000      40982.50      33970.30      -0.0752171
      336.0000      34648.30      33970.30      -0.1614846
      339.0000      34648.30      33970.30      -0.0473862
      342.0000      38607.70      33970.30      0.0324205
      345.0000      38059.90      33970.30      0.0276308
      348.0000      42827.20      33970.30      0.0004462
      351.0000      34482.70      33970.30      -0.1354428
      354.0000      27387.30      33970.30      -0.2871478
      357.0000      30288.40      33970.30      -0.2625254
      360.0000      24017.10      33970.30      -0.2946484
       19     121       19.5900     69.0000      1.00000      0.00000
      0.0000      30348.10      27856.20      -0.1795710
      3.0000      25084.30      27856.20      -0.2042586
      6.0000      31721.50      27856.20      -0.1726934
      9.0000      29731.70      27856.20      -0.1137275
      12.0000      28988.30      27856.20      -0.1741780
      15.0000      22359.00      27856.20      -0.2170109
      18.0000      23612.10      27856.20      -0.1894724
      21.0000      25237.80      27856.20      -0.1068096
      24.0000      23246.90      27856.20      -0.1257509
      27.0000      30910.30      27856.20      0.0169109
      30.0000      31533.10      27856.20      0.0761634
      33.0000      31712.70      27856.20      0.1470012
      36.0000      26597.50      27856.20      0.1020300
      39.0000      19704.30      27856.20      -0.0301217
      42.0000      19869.70      27856.20      -0.0980405
      45.0000      16787.30      27856.20      -0.0205411
      48.0000      26695.50      27856.20      0.0583357
      51.0000      22186.30      27856.20      -0.0181386
      54.0000      21735.00      27856.20      0.0152255
      57.0000      20510.10      27856.20      -0.0083341
      60.0000      18356.50      27856.20      -0.0688768
      63.0000      19705.10      27856.20      -0.0328555
      66.0000      26280.00      27856.20      0.2112964
      69.0000      28942.50      27856.20      0.3693142
      72.0000      23999.90      27856.20      0.2726237
      75.0000      26376.50      27856.20      0.3688175
      78.0000      16445.40      27856.20      0.0749225
      81.0000      16428.80      27856.20      0.0186449
      84.0000      14053.40      27856.20      -0.0380175
      87.0000      16769.40      27856.20      0.0337129
      90.0000      17624.40      27856.20      0.0839258
      93.0000      19245.70      27856.20      0.1127022
      96.0000      21651.60      27856.20      0.1907380
      99.0000      24405.40      27856.20      0.2784874
      102.0000      23136.40      27856.20      0.2292019
      105.0000      20630.00      27856.20      0.0701760
      108.0000      13337.50      27856.20      -0.1293696
      111.0000      14882.70      27856.20      -0.0748138
      114.0000      22452.80      27856.20      0.1277506
      117.0000      22143.50      27856.20      0.1040459
      120.0000      25179.50      27856.20      0.1786251
      123.0000      33149.60      27856.20      0.4460739
      126.0000      27365.90      27856.20      0.2574739
      129.0000      20751.50      27856.20      0.0912842
      132.0000      18925.90      27856.20      -0.0808725
      135.0000      18880.80      27856.20      -0.0726808
      138.0000      16598.40      27856.20      -0.1866787
      141.0000      16668.60      27856.20      -0.1486393
      144.0000      19125.00      27856.20      -0.0806064
      147.0000      14770.20      27856.20      -0.1919555
      150.0000      12740.40      27856.20      -0.3015694
      153.0000      20710.10      27856.20      -0.1008525
      156.0000      24928.90      27856.20      -0.0093035
      159.0000      24928.90      27856.20      0.1555478
      162.0000      22865.60      27856.20      0.0986408
      165.0000      23497.40      27856.20      -0.0278925
      168.0000      20649.70      27856.20      -0.0826533
      171.0000      16866.70      27856.20      -0.2234862
      174.0000      18156.30      27856.20      -0.2223422
      177.0000      17669.80      27856.20      -0.2062739
      180.0000      19798.70      27856.20      -0.1795710
      183.0000      22169.70      27856.20      -0.2042586
      186.0000      17993.10      27856.20      -0.1726934
      189.0000      22314.70      27856.20      -0.1137275
      192.0000      19095.40      27856.20      -0.1741780
      195.0000      22484.30      27856.20      -0.2170109
      198.0000      22405.50      27856.20      -0.1894724
      201.0000      25024.60      27856.20      -0.1068096
      204.0000      25632.10      27856.20      -0.1257508
      207.0000      24767.20      27856.20      0.0169109
      210.0000      26844.70      27856.20      0.0761634
      213.0000      30201.20      27856.20      0.1470012
      216.0000      33440.80      27856.20      0.1020300
      219.0000      34086.60      27856.20      -0.0301217
      222.0000      29200.80      27856.20      -0.0980405
      225.0000      38477.60      27856.20      -0.0205411
      228.0000      28152.40      27856.20      0.0583357
      231.0000      29681.50      27856.20      -0.0181386
      234.0000      32239.40      27856.20      0.0152255
      237.0000      32355.90      27856.20      -0.0083341
      240.0000      31667.90      27856.20      -0.0688768
      243.0000      31498.60      27856.20      -0.0328555
      246.0000      36182.90      27856.20      0.2112964
      249.0000      41961.00      27856.20      0.3693142
      252.0000      44294.40      27856.20      0.2726237
      255.0000      46397.70      27856.20      0.3688175
      258.0000      44841.90      27856.20      0.0749225
      261.0000      40857.50      27856.20      0.0186449
      264.0000      41633.80      27856.20      -0.0380175
      267.0000      41438.90      27856.20      0.0337128
      270.0000      43506.90      27856.20      0.0839258
      273.0000      42435.50      27856.20      0.1127022
      276.0000      43419.80      27856.20      0.1907380
      279.0000      44465.70      27856.20      0.2784874
      282.0000      43728.70      27856.20      0.2292019
      285.0000      37346.10      27856.20      0.0701760
      288.0000      37752.90      27856.20      -0.1293696
      291.0000      38902.40      27856.20      -0.0748138
      294.0000      38976.70      27856.20      0.1277507
      297.0000      38226.40      27856.20      0.1040459
      300.0000      38191.40      27856.20      0.1786251
      303.0000      43040.20      27856.20      0.4460739
      306.0000      40803.10      27856.20      0.2574739
      309.0000      41514.70      27856.20      0.0912842
      312.0000      32558.20      27856.20      -0.0808725
      315.0000      33542.70      27856.20      -0.0726808
      318.0000      29588.90      27856.20      -0.1866787
      321.0000      32415.60      27856.20      -0.1486392
      324.0000      33278.40      27856.20      -0.0806064
      327.0000      32749.40      27856.20      -0.1919556
      330.0000      28366.40      27856.20      -0.3015694
      333.0000      29814.80      27856.20      -0.1008524
      336.0000      29814.80      27856.20      -0.0093035
      339.0000      41003.70      27856.20      0.1555478
      342.0000      40084.10      27856.20      0.0986408
      345.0000      30875.70      27856.20      -0.0278925
      348.0000      31048.60      27856.20      -0.0826533
      351.0000      26862.00      27856.20      -0.2234861
      354.0000      25098.00      27856.20      -0.2223422
      357.0000      26320.90      27856.20      -0.2062739
      360.0000      19798.70      27856.20      -0.1795710
