      20    2420    0     datakind beginning-row linenumbers
MSCD Version 1.00 Yufeng Chen and Michel A Van Hove
Lawrence Berkeley National Laboratory (LBNL), Berkeley, CA 94720
Copyright (c) Van Hove Group 1997. All rights reserved
--------------------------------------------------------------
angle-resolved photoemission extended fine structure (ARPEFS)
experimental data for Fe 2p3/2 from Fe on STO(100)  excited with hv=1810eV

provided by Pancotti et al. (LNLS in 9, June 2010)
   initial angular momentum (l) = 1
   photon polarization angle (polar, azimuth) = (  30.0,   0.0 ) (deg)
   sample temperature = 300 K

   photoemission angular scan curves
     (curve point theta phi weightc weighte//k intensity chiexp)
      20     2420       1       20     121     2420
       1     121       19.5900     12.0000      1.00000      0.00000
      0.0000      36173.40      36411.30      0.0560838
      3.0000      30293.60      36411.30      -0.0578487
      6.0000      37855.80      36411.30      0.1153873
      9.0000      39728.30      36411.30      0.1383857
      12.0000      33138.70      36411.30      0.0053059
      15.0000      39044.80      36411.30      0.1625669
      18.0000      29643.00      36411.30      -0.0581649
      21.0000      30705.90      36411.30      -0.0266860
      24.0000      27722.70      36411.30      -0.0879583
      27.0000      35696.50      36411.30      0.0982999
      30.0000      34588.80      36411.30      0.0477154
      33.0000      33877.80      36411.30      0.0692330
      36.0000      29123.20      36411.30      -0.0564266
      39.0000      34404.50      36411.30      0.0662850
      42.0000      33489.00      36411.30      0.0303384
      45.0000      27438.00      36411.30      -0.0925593
      48.0000      28004.80      36411.30      -0.0876555
      51.0000      27752.00      36411.30      -0.0647067
      54.0000      28266.50      36411.30      -0.0832877
      57.0000      29893.80      36411.30      -0.0287927
      60.0000      33200.80      36411.30      0.0720694
      63.0000      27390.40      36411.30      -0.1127784
      66.0000      26506.40      36411.30      -0.1039029
      69.0000      28264.40      36411.30      -0.0781398
      72.0000      30616.50      36411.30      -0.0300675
      75.0000      31757.30      36411.30      0.0015264
      78.0000      33951.20      36411.30      0.0706200
      81.0000      35214.70      36411.30      0.0840438
      84.0000      31925.30      36411.30      0.0214446
      87.0000      28636.50      36411.30      -0.0960143
      90.0000      36170.30      36411.30      0.1335542
      93.0000      33587.70      36411.30      0.0279028
      96.0000      37278.20      36411.30      0.1136693
      99.0000      29499.10      36411.30      -0.0501972
      102.0000      35800.10      36411.30      0.0897368
      105.0000      28909.90      36411.30      -0.0934059
      108.0000      24649.20      36411.30      -0.1462298
      111.0000      33854.10      36411.30      0.0431894
      114.0000      33387.30      36411.30      0.0159155
      117.0000      26908.20      36411.30      -0.1417994
      120.0000      33564.90      36411.30      0.0066340
      123.0000      31170.80      36411.30      -0.0570627
      126.0000      28616.70      36411.30      -0.0988873
      129.0000      36103.50      36411.30      0.0718004
      132.0000      27277.40      36411.30      -0.0768263
      135.0000      28115.60      36411.30      -0.1154838
      138.0000      29079.00      36411.30      -0.1073828
      141.0000      30191.20      36411.30      -0.1011685
      144.0000      34904.90      36411.30      0.0117004
      147.0000      34904.90      36411.30      -0.0541559
      150.0000      33112.60      36411.30      -0.0443137
      153.0000      35634.60      36411.30      0.0073361
      156.0000      38509.00      36411.30      0.0844524
      159.0000      35582.70      36411.30      -0.0216327
      162.0000      38732.50      36411.30      0.0752874
      165.0000      37565.30      36411.30      0.0705841
      168.0000      34586.80      36411.30      0.0017916
      171.0000      35354.40      36411.30      -0.0367938
      174.0000      40419.30      36411.30      0.0955051
      177.0000      46773.10      36411.30      0.2058058
      180.0000      40708.10      36411.30      0.0786708
      183.0000      40353.40      36411.30      0.0172520
      186.0000      42455.00      36411.30      0.1238709
      189.0000      40043.80      36411.30      0.0964867
      192.0000      39547.70      36411.30      0.0245813
      195.0000      43371.20      36411.30      0.1478188
      198.0000      39700.40      36411.30      -0.0090561
      201.0000      40470.20      36411.30      0.0130965
      204.0000      40316.20      36411.30      -0.0204303
      207.0000      42165.70      36411.30      0.0881330
      210.0000      38457.50      36411.30      0.0109497
      213.0000      42724.40      36411.30      0.0763912
      216.0000      39568.90      36411.30      -0.0273165
      219.0000      40433.40      36411.30      0.0385288
      222.0000      38202.40      36411.30      -0.0105408
      225.0000      39213.80      36411.30      -0.0560438
      228.0000      38183.30      36411.30      -0.0696984
      231.0000      41788.20      36411.30      -0.0132858
      234.0000      37932.50      36411.30      -0.0749392
      237.0000      40344.60      36411.30      -0.0197775
      240.0000      43996.40      36411.30      0.0729859
      243.0000      36716.40      36411.30      -0.1095166
      246.0000      40507.60      36411.30      -0.0573443
      249.0000      38920.90      36411.30      -0.0674996
      252.0000      38559.90      36411.30      -0.0512009
      255.0000      39578.30      36411.30      -0.0244988
      258.0000      42518.00      36411.30      0.0444536
      261.0000      40870.30      36411.30      0.0284818
      264.0000      42405.40      36411.30      0.0186140
      267.0000      36667.20      36411.30      -0.1101459
      270.0000      45553.20      36411.30      0.1098817
      273.0000      39354.60      36411.30      -0.0189427
      276.0000      40458.40      36411.30      0.0347826
      279.0000      41397.50      36411.30      -0.0288056
      282.0000      42298.70      36411.30      0.0476906
      285.0000      37996.00      36411.30      -0.0919074
      288.0000      43341.10      36411.30      -0.0468787
      291.0000      42824.60      36411.30      0.0348182
      294.0000      40919.90      36411.30      -0.0013914
      297.0000      38466.80      36411.30      -0.1048857
      300.0000      39982.90      36411.30      -0.0152854
      303.0000      38543.80      36411.30      -0.0619056
      306.0000      40312.30      36411.30      -0.0563769
      309.0000      42787.60      36411.30      0.0570383
      312.0000      47251.50      36411.30      0.0496363
      315.0000      40306.00      36411.30      -0.0572691
      318.0000      39093.00      36411.30      -0.0668768
      321.0000      37288.30      36411.30      -0.0851879
      324.0000      39928.90      36411.30      0.0056838
      327.0000      31953.00      36411.30      -0.1293269
      330.0000      37884.90      36411.30      -0.0405159
      333.0000      38395.20      36411.30      -0.0055225
      336.0000      41229.70      36411.30      0.0739955
      339.0000      35419.90      36411.30      -0.0512597
      342.0000      40002.30      36411.30      0.0632599
      345.0000      42243.50      36411.30      0.0990675
      348.0000      40856.60      36411.30      0.0539588
      351.0000      34699.20      36411.30      -0.0469690
      354.0000      39075.40      36411.30      0.0854783
      357.0000      38227.70      36411.30      0.1315325

       2     121       19.5900     15.0000      1.00000      0.00000
      0.0000      39622.10      34521.80      0.0235730
      3.0000      43505.10      34521.80      0.0562603
      6.0000      45044.50      34521.80      0.1899595
      9.0000      41526.90      34521.80      0.0812295
      12.0000      41131.70      34521.80      0.0788487
      15.0000      43202.40      34521.80      0.1219560
      18.0000      39265.00      34521.80      0.0717911
      21.0000      35794.00      34521.80      0.0245103
      24.0000      33716.20      34521.80      -0.0505049
      27.0000      31720.10      34521.80      -0.0612485
      30.0000      36963.30      34521.80      0.0198360
      33.0000      31457.80      34521.80      -0.0668015
      36.0000      32572.30      34521.80      -0.0055552
      39.0000      33722.30      34521.80      -0.0335762
      42.0000      34619.80      34521.80      0.0323000
      45.0000      35764.80      34521.80      0.0346671
      48.0000      32445.10      34521.80      -0.0196328
      51.0000      29963.40      34521.80      -0.0499946
      54.0000      28684.10      34521.80      -0.0876204
      57.0000      32727.50      34521.80      -0.0102948
      60.0000      26441.20      34521.80      -0.1601484
      63.0000      29159.80      34521.80      -0.1037015
      66.0000      29912.30      34521.80      -0.0332688
      69.0000      26532.10      34521.80      -0.1539766
      72.0000      26588.00      34521.80      -0.1427408
      75.0000      30946.70      34521.80      -0.0539632
      78.0000      28576.00      34521.80      -0.0894915
      81.0000      30405.80      34521.80      -0.0243366
      84.0000      36046.00      34521.80      0.0808755
      87.0000      37764.20      34521.80      0.1762239
      90.0000      34227.50      34521.80      0.0736061
      93.0000      34691.70      34521.80      0.0818178
      96.0000      34333.50      34521.80      0.0896881
      99.0000      35276.40      34521.80      0.1110534
      102.0000      35305.00      34521.80      0.0580037
      105.0000      35159.30      34521.80      0.1324127
      108.0000      32585.30      34521.80      0.0321297
      111.0000      26256.50      34521.80      -0.0899911
      114.0000      28594.50      34521.80      -0.0496513
      117.0000      24232.10      34521.80      -0.1978971
      120.0000      24974.90      34521.80      -0.2164877
      123.0000      30702.90      34521.80      -0.0238284
      126.0000      32222.80      34521.80      0.0222868
      129.0000      31313.10      34521.80      -0.0292585
      132.0000      31585.00      34521.80      -0.0170123
      135.0000      29326.20      34521.80      -0.0825315
      138.0000      30938.80      34521.80      -0.0296850
      141.0000      32984.70      34521.80      -0.0087644
      144.0000      30746.40      34521.80      -0.0268065
      147.0000      26708.60      34521.80      -0.1435973
      150.0000      37746.40      34521.80      0.1176821
      153.0000      35589.80      34521.80      0.0870408
      156.0000      28518.80      34521.80      -0.1157816
      159.0000      29085.50      34521.80      -0.1092766
      162.0000      37164.40      34521.80      0.1096614
      165.0000      30452.80      34521.80      -0.0772565
      168.0000      31567.30      34521.80      0.0101368
      171.0000      33410.60      34521.80      0.0435898
      174.0000      33443.20      34521.80      0.0188411
      177.0000      37758.10      34521.80      0.1852396
      180.0000      38089.00      34521.80      0.0807636
      183.0000      33568.20      34521.80      0.0212028
      186.0000      44052.00      34521.80      0.2461684
      189.0000      37959.80      34521.80      0.0967980
      192.0000      37522.40      34521.80      0.0860408
      195.0000      37216.70      34521.80      0.0984519
      198.0000      38660.70      34521.80      0.0949822
      201.0000      39707.00      34521.80      0.0865420
      204.0000      34990.90      34521.80      -0.0233834
      207.0000      37330.70      34521.80      0.0050667
      210.0000      34514.30      34521.80      -0.0028636
      213.0000      36072.60      34521.80      -0.0215032
      216.0000      39929.50      34521.80      0.0627900
      219.0000      33612.80      34521.80      -0.0476459
      222.0000      38455.90      34521.80      0.0533958
      225.0000      35514.80      34521.80      0.0083906
      228.0000      36465.90      34521.80      -0.0044906
      231.0000      38349.30      34521.80      0.0074986
      234.0000      36655.60      34521.80      -0.0368114
      237.0000      35470.90      34521.80      -0.0202430
      240.0000      32984.10      34521.80      -0.1275707
      243.0000      32564.10      34521.80      -0.1089933
      246.0000      38586.40      34521.80      0.0102621
      249.0000      32627.40      34521.80      -0.1336884
      252.0000      33560.80      34521.80      -0.1159656
      255.0000      32737.30      34521.80      -0.0878440
      258.0000      34348.50      34521.80      -0.0817455
      261.0000      37150.50      34521.80      -0.0118503
      264.0000      34902.50      34521.80      0.0036390
      267.0000      41532.50      34521.80      0.1428888
      270.0000      38380.20      34521.80      0.0495945
      273.0000      38023.20      34521.80      0.0480166
      276.0000      39776.60      34521.80      0.0768616
      279.0000      39777.10      34521.80      0.0868496
      282.0000      33384.80      34521.80      -0.0295730
      285.0000      42502.20      34521.80      0.1368197
      288.0000      37323.90      34521.80      0.0163571
      291.0000      39285.00      34521.80      -0.0108759
      294.0000      37999.60      34521.80      -0.0098065
      297.0000      31829.10      34521.80      -0.1667511
      300.0000      27778.00      34521.80      -0.2331529
      303.0000      35702.30      34521.80      -0.0270693
      306.0000      37261.10      34521.80      0.0189075
      309.0000      33638.20      34521.80      -0.0561292
      312.0000      34434.20      34521.80      -0.0365514
      315.0000      32577.70      34521.80      -0.0919687
      318.0000      34699.30      34521.80      -0.0332994
      321.0000      32150.10      34521.80      -0.0589305
      324.0000      35582.60      34521.80      -0.0123287
      327.0000      32166.50      34521.80      -0.1146137
      330.0000      35187.20      34521.80      0.0560796
      333.0000      36902.80      34521.80      0.0727572
      336.0000      31025.50      34521.80      -0.1076842
      339.0000      30436.10      34521.80      -0.1094725
      342.0000      35821.50      34521.80      0.0820400
      345.0000      30771.00      34521.80      -0.0793954
      348.0000      37467.50      34521.80      0.0753819
      351.0000      36864.60      34521.80      0.0883223
      354.0000      34121.70      34521.80      0.0390627
      357.0000      41886.60      34521.80      0.2549087

       3     121       19.5900     18.0000      1.00000      0.00000
      0.0000      49672.00      40830.70      0.1791252
      3.0000      41365.80      40830.70      0.0871756
      6.0000      55562.80      40830.70      0.2226150
      9.0000      46719.50      40830.70      0.1071763
      12.0000      36682.40      40830.70      0.0144056
      15.0000      51406.40      40830.70      0.1977227
      18.0000      35514.70      40830.70      -0.0487440
      21.0000      53248.70      40830.70      0.2172821
      24.0000      40974.50      40830.70      0.1135983
      27.0000      35967.60      40830.70      -0.0371086
      30.0000      38290.80      40830.70      -0.0073616
      33.0000      29843.80      40830.70      -0.1647829
      36.0000      41550.00      40830.70      0.0580656
      39.0000      32189.30      40830.70      -0.0937674
      42.0000      38686.30      40830.70      0.0067343
      45.0000      48821.70      40830.70      0.1896483
      48.0000      47774.60      40830.70      0.1811833
      51.0000      23800.90      40830.70      -0.2543540
      54.0000      40348.80      40830.70      0.0815857
      57.0000      25885.30      40830.70      -0.1990858
      60.0000      30236.30      40830.70      -0.1036127
      63.0000      27559.40      40830.70      -0.1690565
      66.0000      28925.50      40830.70      -0.1844868
      69.0000      29882.80      40830.70      -0.1285097
      72.0000      31762.30      40830.70      -0.1392819
      75.0000      27005.20      40830.70      -0.2052654
      78.0000      28925.60      40830.70      -0.1396221
      81.0000      30633.10      40830.70      -0.1108851
      84.0000      34463.50      40830.70      -0.0378892
      87.0000      39459.10      40830.70      0.0370492
      90.0000      42046.50      40830.70      0.1133598
      93.0000      31062.50      40830.70      -0.0947358
      96.0000      42034.70      40830.70      0.1000960
      99.0000      39374.50      40830.70      0.0423741
      102.0000      45431.00      40830.70      0.1722467
      105.0000      33796.00      40830.70      -0.0657375
      108.0000      41864.50      40830.70      0.1130446
      111.0000      29581.10      40830.70      -0.1420801
      114.0000      33944.50      40830.70      -0.0759295
      117.0000      35177.20      40830.70      -0.0582223
      120.0000      31110.20      40830.70      -0.1465644
      123.0000      39717.90      40830.70      0.0203786
      126.0000      35299.50      40830.70      -0.0464160
      129.0000      30367.80      40830.70      -0.1284393
      132.0000      39886.50      40830.70      0.0285428
      135.0000      38003.00      40830.70      0.0001081
      138.0000      39031.70      40830.70      0.0274369
      141.0000      38569.00      40830.70      -0.0214157
      144.0000      53205.90      40830.70      0.2568865
      147.0000      33791.80      40830.70      -0.1231250
      150.0000      41114.10      40830.70      0.0218010
      153.0000      36932.60      40830.70      -0.0204275
      156.0000      32988.00      40830.70      -0.1250641
      159.0000      32845.00      40830.70      -0.1000359
      162.0000      31341.00      40830.70      -0.1317928
      165.0000      45821.10      40830.70      0.1176109
      168.0000      35367.70      40830.70      -0.0424307
      171.0000      36882.20      40830.70      -0.0297676
      174.0000      45079.10      40830.70      0.1314997
      177.0000      42296.50      40830.70      0.1298900
      180.0000      53858.90      40830.70      0.2531567
      183.0000      57587.30      40830.70      0.2552980
      186.0000      45056.40      40830.70      0.1506674
      189.0000      47178.40      40830.70      0.1214120
      192.0000      55426.30      40830.70      0.1811153
      195.0000      46872.30      40830.70      0.1525564
      198.0000      48170.60      40830.70      0.0519014
      201.0000      43076.20      40830.70      0.1071567
      204.0000      56207.00      40830.70      0.2215479
      207.0000      46708.90      40830.70      0.0294471
      210.0000      44622.50      40830.70      0.0143143
      213.0000      42715.60      40830.70      -0.0847388
      216.0000      44380.40      40830.70      0.0363068
      219.0000      45859.40      40830.70      -0.0181623
      222.0000      43116.90      40830.70      -0.0076812
      225.0000      42429.20      40830.70      0.0662900
      228.0000      43244.30      40830.70      0.0702206
      231.0000      43384.10      40830.70      -0.1313268
      234.0000      47408.40      40830.70      0.0705042
      237.0000      45345.70      40830.70      -0.0858417
      240.0000      47189.20      40830.70      -0.0213551
      243.0000      44817.60      40830.70      -0.0814935
      246.0000      38782.70      40830.70      -0.1618048
      249.0000      44069.30      40830.70      -0.0742833
      252.0000      37292.50      40830.70      -0.1606068
      255.0000      40671.40      40830.70      -0.1519553
      258.0000      44820.60      40830.70      -0.0733796
      261.0000      44247.70      40830.70      -0.0675037
      264.0000      44247.70      40830.70      -0.0342531
      267.0000      41341.00      40830.70      -0.0341534
      270.0000      45292.20      40830.70      0.0474686
      273.0000      45481.00      40830.70      -0.0464450
      276.0000      43582.30      40830.70      0.0214531
      279.0000      42667.00      40830.70      -0.0156132
      282.0000      45003.70      40830.70      0.0725354
      285.0000      42592.30      40830.70      -0.0651199
      288.0000      46579.90      40830.70      0.0656591
      291.0000      43312.80      40830.70      -0.0897122
      294.0000      41210.60      40830.70      -0.0827346
      297.0000      40632.50      40830.70      -0.0798839
      300.0000      39027.70      40830.70      -0.1381584
      303.0000      40244.10      40830.70      -0.0444529
      306.0000      42569.10      40830.70      -0.0449936
      309.0000      43956.70      40830.70      -0.0634100
      312.0000      41689.00      40830.70      -0.0155428
      315.0000      42726.60      40830.70      -0.0127732
      318.0000      44109.90      40830.70      0.0205281
      321.0000      38750.50      40830.70      -0.0648207
      324.0000      41110.30      40830.70      0.0972931
      327.0000      36883.30      40830.70      -0.1274171
      330.0000      39000.20      40830.70      -0.0290165
      333.0000      43297.80      40830.70      0.0119831
      336.0000      38691.20      40830.70      -0.0904982
      339.0000      42224.80      40830.70      -0.0264326
      342.0000      41406.60      40830.70      -0.0451570
      345.0000      41271.00      40830.70      0.0755759
      348.0000      43613.90      40830.70      0.0417000
      351.0000      41801.00      40830.70      0.0313020
      354.0000      44295.50      40830.70      0.1505489
      357.0000      49413.30      40830.70      0.2343342

       4     121       19.5900     21.0000      1.00000      0.00000
      0.0000      58164.40      44711.20      0.2128483
      3.0000      53668.60      44711.20      0.1500920
      6.0000      51764.80      44711.20      0.1413428
      9.0000      46646.60      44711.20      0.0927090
      12.0000      38753.30      44711.20      -0.0694963
      15.0000      42496.50      44711.20      0.0140980
      18.0000      49183.80      44711.20      0.1670120
      21.0000      47633.30      44711.20      0.0668790
      24.0000      39371.20      44711.20      -0.0238969
      27.0000      24905.60      44711.20      -0.3064775
      30.0000      32079.50      44711.20      -0.1593886
      33.0000      33019.00      44711.20      -0.0935821
      36.0000      44637.80      44711.20      0.0464139
      39.0000      42206.90      44711.20      0.0939623
      42.0000      36275.90      44711.20      -0.0626659
      45.0000      29795.10      44711.20      -0.1821654
      48.0000      42379.50      44711.20      0.0490807
      51.0000      40313.10      44711.20      0.0244997
      54.0000      40313.10      44711.20      0.0474351
      57.0000      35610.90      44711.20      -0.0130438
      60.0000      39188.60      44711.20      0.1125879
      63.0000      51438.10      44711.20      0.2259596
      66.0000      26562.30      44711.20      -0.1800994
      69.0000      26562.30      44711.20      -0.2267656
      72.0000      25552.00      44711.20      -0.1637173
      75.0000      29667.40      44711.20      -0.1633638
      78.0000      43024.30      44711.20      0.0186728
      81.0000      30102.30      44711.20      -0.1657312
      84.0000      36608.50      44711.20      -0.0350085
      87.0000      41656.00      44711.20      0.0513795
      90.0000      29593.20      44711.20      -0.1850181
      93.0000      60807.00      44711.20      0.4808151
      96.0000      45951.00      44711.20      0.1477283
      99.0000      44237.60      44711.20      0.1845611
      102.0000      29740.30      44711.20      -0.1305819
      105.0000      46543.50      44711.20      0.1975215
      108.0000      42642.50      44711.20      0.0071126
      111.0000      37325.10      44711.20      0.0039994
      114.0000      26210.10      44711.20      -0.2228904
      117.0000      30103.10      44711.20      -0.2512748
      120.0000      29497.00      44711.20      -0.2361214
      123.0000      34735.60      44711.20      -0.1580306
      126.0000      39091.40      44711.20      0.0490553
      129.0000      34578.90      44711.20      -0.0963675
      132.0000      41594.60      44711.20      0.0683761
      135.0000      44694.50      44711.20      0.0873193
      138.0000      41757.50      44711.20      0.0277530
      141.0000      39781.20      44711.20      0.0329373
      144.0000      45005.90      44711.20      0.0569050
      147.0000      47877.20      44711.20      0.1150805
      150.0000      40169.10      44711.20      0.0457395
      153.0000      40169.10      44711.20      -0.0331709
      156.0000      40169.10      44711.20      -0.0859681
      159.0000      36388.60      44711.20      -0.0648879
      162.0000      38000.90      44711.20      -0.0975563
      165.0000      38945.90      44711.20      -0.0562337
      168.0000      40051.80      44711.20      -0.0658004
      171.0000      49036.40      44711.20      0.1378643
      174.0000      49036.40      44711.20      0.0605154
      177.0000      49036.40      44711.20      0.0789759
      180.0000      53746.30      44711.20      0.2005051
      183.0000      52434.10      44711.20      0.1509087
      186.0000      53692.30      44711.20      0.1567419
      189.0000      56430.20      44711.20      0.1612290
      192.0000      49170.80      44711.20      -0.0025177
      195.0000      51863.30      44711.20      0.0627000
      198.0000      57733.80      44711.20      0.1957482
      201.0000      45125.00      44711.20      0.0024204
      204.0000      50552.40      44711.20      0.0177342
      207.0000      43014.50      44711.20      -0.2006417
      210.0000      46661.80      44711.20      -0.0955149
      213.0000      53724.50      44711.20      0.0091764
      216.0000      43909.60      44711.20      -0.0369729
      219.0000      57008.90      44711.20      0.1243032
      222.0000      47892.40      44711.20      -0.0500196
      225.0000      46443.90      44711.20      -0.1236360
      228.0000      47263.60      44711.20      -0.0106416
      231.0000      48617.20      44711.20      -0.0101391
      234.0000      51790.60      44711.20      0.0315769
      237.0000      55335.80      44711.20      0.0385216
      240.0000      64871.00      44711.20      0.1941234
      243.0000      46620.20      44711.20      0.0533443
      246.0000      54431.10      44711.20      -0.0547301
      249.0000      46718.00      44711.20      -0.1580949
      252.0000      60112.20      44711.20      0.0082063
      255.0000      47671.10      44711.20      -0.1215331
      258.0000      36992.70      44711.20      -0.1483934
      261.0000      46031.50      44711.20      -0.1413780
      264.0000      47875.00      44711.20      -0.0626924
      267.0000      46906.30      44711.20      -0.0331782
      270.0000      44783.30      44711.20      -0.1644456
      273.0000      60233.90      44711.20      0.3015017
      276.0000      50634.50      44711.20      0.0493720
      279.0000      62339.70      44711.20      0.1868478
      282.0000      54288.40      44711.20      -0.0406930
      285.0000      58399.80      44711.20      0.1541704
      288.0000      39096.30      44711.20      -0.1315191
      291.0000      54831.60      44711.20      0.0308012
      294.0000      50614.90      44711.20      -0.1159447
      297.0000      34898.50      44711.20      -0.2906881
      300.0000      39474.90      44711.20      -0.2342497
      303.0000      37553.70      44711.20      -0.2163045
      306.0000      59099.90      44711.20      0.1092576
      309.0000      48717.50      44711.20      -0.0644500
      312.0000      56051.10      44711.20      0.0937534
      315.0000      51080.80      44711.20      0.0534436
      318.0000      50020.70      44711.20      0.0189636
      321.0000      56367.50      44711.20      0.0959442
      324.0000      46897.90      44711.20      0.0081709
      327.0000      48912.90      44711.20      0.0631838
      330.0000      57915.60      44711.20      0.1394872
      333.0000      46285.50      44711.20      -0.0222069
      336.0000      38722.40      44711.20      -0.1273926
      339.0000      50725.00      44711.20      0.0304434
      342.0000      42343.90      44711.20      -0.0757344
      345.0000      46033.50      44711.20      -0.0032232
      348.0000      42227.30      44711.20      -0.0447750
      351.0000      50776.60      44711.20      0.1674427
      354.0000      40362.90      44711.20      0.0106305
      357.0000      42662.90      44711.20      0.0609913

       5     121       19.5900     24.0000      1.00000      0.00000
      0.0000      52008.80      42658.20      0.1113620
      3.0000      47531.50      42658.20      0.0473274
      6.0000      51216.40      42658.20      0.0997365
      9.0000      38644.40      42658.20      -0.0802062
      12.0000      43630.10      42658.20      0.0150064
      15.0000      38509.10      42658.20      0.0198459
      18.0000      48640.80      42658.20      0.1060306
      21.0000      38411.60      42658.20      -0.1364521
      24.0000      43078.80      42658.20      0.0347415
      27.0000      43078.80      42658.20      0.1037598
      30.0000      38770.70      42658.20      -0.0045795
      33.0000      32939.40      42658.20      -0.1250633
      36.0000      39863.00      42658.20      0.0395360
      39.0000      25668.20      42658.20      -0.2954068
      42.0000      43533.50      42658.20      0.0552728
      45.0000      30178.20      42658.20      -0.1372652
      48.0000      35121.20      42658.20      0.0151071
      51.0000      42255.80      42658.20      0.0468461
      54.0000      41792.80      42658.20      0.0942116
      57.0000      39922.70      42658.20      0.0887584
      60.0000      36133.00      42658.20      0.0104832
      63.0000      37081.20      42658.20      0.0242753
      66.0000      35213.10      42658.20      -0.0384466
      69.0000      41854.80      42658.20      0.1547448
      72.0000      30468.50      42658.20      -0.1549511
      75.0000      32476.00      42658.20      -0.0975335
      78.0000      21485.10      42658.20      -0.2691153
      81.0000      37055.60      42658.20      0.0363333
      84.0000      27819.90      42658.20      -0.1585799
      87.0000      44122.90      42658.20      0.1516137
      90.0000      41457.20      42658.20      0.1492952
      93.0000      34262.90      42658.20      0.0553908
      96.0000      39407.30      42658.20      0.1172222
      99.0000      49956.20      42658.20      0.3524474
      102.0000      42371.10      42658.20      0.1519575
      105.0000      46614.60      42658.20      0.2775942
      108.0000      22250.70      42658.20      -0.2599543
      111.0000      28569.00      42658.20      -0.0819672
      114.0000      31131.20      42658.20      -0.0758529
      117.0000      23074.50      42658.20      -0.3246058
      120.0000      30370.70      42658.20      -0.1661775
      123.0000      34295.90      42658.20      -0.0304331
      126.0000      32500.30      42658.20      -0.0545063
      129.0000      31976.40      42658.20      -0.1122889
      132.0000      41946.30      42658.20      0.1159096
      135.0000      38516.90      42658.20      -0.0197209
      138.0000      32493.30      42658.20      -0.0781805
      141.0000      41438.10      42658.20      0.0918801
      144.0000      42177.40      42658.20      0.0390279
      147.0000      40924.60      42658.20      0.0644603
      150.0000      36878.90      42658.20      -0.0319665
      153.0000      52972.30      42658.20      0.2373998
      156.0000      39451.70      42658.20      -0.0033436
      159.0000      39970.80      42658.20      -0.0134846
      162.0000      27839.20      42658.20      -0.0677951
      165.0000      43339.90      42658.20      -0.0051184
      168.0000      32232.10      42658.20      -0.1919000
      171.0000      47300.30      42658.20      0.0288386
      174.0000      39681.50      42658.20      0.0483572
      177.0000      36180.80      42658.20      -0.0851813
      180.0000      48508.90      42658.20      0.1325231
      183.0000      47090.70      42658.20      0.0796823
      186.0000      45238.10      42658.20      0.0755983
      189.0000      45206.70      42658.20      -0.0127239
      192.0000      46504.90      42658.20      0.0426100
      195.0000      57120.10      42658.20      0.1699885
      198.0000      45293.90      42658.20      0.0606839
      201.0000      33179.00      42658.20      -0.2015583
      204.0000      45313.00      42658.20      0.0193723
      207.0000      53970.40      42658.20      0.1497655
      210.0000      47826.00      42658.20      0.0226634
      213.0000      44026.80      42658.20      -0.0814563
      216.0000      49464.90      42658.20      0.0540638
      219.0000      36430.40      42658.20      -0.2547661
      222.0000      40045.50      42658.20      -0.0541068
      225.0000      46671.00      42658.20      -0.0706563
      228.0000      55319.40      42658.20      0.0942569
      231.0000      39395.30      42658.20      -0.0736313
      234.0000      47108.70      42658.20      0.0319701
      237.0000      50990.30      42658.20      0.0698052
      240.0000      49487.30      42658.20      0.0141823
      243.0000      48360.70      42658.20      0.0055882
      246.0000      43811.80      42658.20      -0.0755741
      249.0000      53523.90      42658.20      0.1177447
      252.0000      39428.10      42658.20      -0.1808044
      255.0000      42111.80      42658.20      -0.1266399
      258.0000      48857.80      42658.20      -0.1344340
      261.0000      48857.80      42658.20      0.0053158
      264.0000      46697.70      42658.20      -0.1091775
      267.0000      45127.40      42658.20      0.0163712
      270.0000      53171.00      42658.20      0.1007544
      273.0000      60861.80      42658.20      0.1390557
      276.0000      54846.00      42658.20      0.1028702
      279.0000      59697.80      42658.20      0.2633334
      282.0000      51737.40      42658.20      0.0857043
      285.0000      58965.80      42658.20      0.2215330
      288.0000      49042.40      42658.20      -0.1324553
      291.0000      58128.30      42658.20      0.0482317
      294.0000      51583.90      42658.20      -0.0179576
      297.0000      36970.90      42658.20      -0.2890249
      300.0000      40332.20      42658.20      -0.1780991
      303.0000      50348.60      42658.20      -0.0048157
      306.0000      52256.00      42658.20      0.0073478
      309.0000      45164.00      42658.20      -0.0942392
      312.0000      52242.50      42658.20      0.0921931
      315.0000      41642.90      42658.20      -0.0844877
      318.0000      49984.10      42658.20      -0.0148875
      321.0000      51483.00      42658.20      0.0850115
      324.0000      42024.30      42658.20      -0.0419510
      327.0000      49615.30      42658.20      0.0614627
      330.0000      46336.50      42658.20      -0.0152585
      333.0000      44739.90      42658.20      0.0965048
      336.0000      44525.40      42658.20      -0.0109400
      339.0000      42076.60      42658.20      -0.0381574
      342.0000      63681.30      42658.20      0.2073429
      345.0000      35798.70      42658.20      -0.0970668
      348.0000      36061.50      42658.20      -0.1728243
      351.0000      32050.60      42658.20      -0.1141908
      354.0000      51303.70      42658.20      0.1537513
      357.0000      41260.80      42658.20      -0.0280524

       6     121       19.5900     27.0000      1.00000      0.00000
      0.0000      62377.40      41670.70      0.0795056
      3.0000      77316.20      41670.70      0.2410326
      6.0000      52008.40      41670.70      -0.0497650
      9.0000      57838.30      41670.70      0.0918357
      12.0000      37197.50      41670.70      -0.1482232
      15.0000      47925.80      41670.70      0.0425210
      18.0000      45637.80      41670.70      0.0255942
      21.0000      44175.90      41670.70      0.0561404
      24.0000      46113.90      41670.70      0.1012662
      27.0000      35593.30      41670.70      -0.1687993
      30.0000      38873.10      41670.70      -0.0511515
      33.0000      19288.10      41670.70      -0.3866857
      36.0000      41206.90      41670.70      0.0197311
      39.0000      47402.80      41670.70      0.1428760
      42.0000      47107.00      41670.70      0.1738134
      45.0000      38984.00      41670.70      0.0554422
      48.0000      38080.00      41670.70      0.0000050
      51.0000      40516.00      41670.70      0.0872455
      54.0000      35840.50      41670.70      0.0996588
      57.0000      33171.90      41670.70      -0.0164376
      60.0000      26512.00      41670.70      -0.2156450
      63.0000      34345.90      41670.70      0.0330050
      66.0000      29936.90      41670.70      -0.0237635
      69.0000      29936.90      41670.70      -0.0355088
      72.0000      29936.90      41670.70      -0.0400330
      75.0000      26650.80      41670.70      -0.0980576
      78.0000      30037.00      41670.70      -0.0564152
      81.0000      21592.20      41670.70      -0.2465098
      84.0000      21592.20      41670.70      -0.2591760
      87.0000      38079.50      41670.70      0.1407061
      90.0000      36041.90      41670.70      0.1441578
      93.0000      37912.00      41670.70      0.2004952
      96.0000      36486.80      41670.70      0.1636216
      99.0000      31334.20      41670.70      0.0859636
      102.0000      32889.50      41670.70      0.0264929
      105.0000      40107.60      41670.70      0.2699415
      108.0000      28988.40      41670.70      -0.0498094
      111.0000      25009.10      41670.70      -0.0790554
      114.0000      25009.10      41670.70      -0.1534596
      117.0000      25008.60      41670.70      -0.1261731
      120.0000      14853.00      41670.70      -0.3858940
      123.0000      24956.30      41670.70      -0.2328923
      126.0000      39110.80      41670.70      0.1710287
      129.0000      27693.40      41670.70      -0.0529496
      132.0000      34646.70      41670.70      0.0451718
      135.0000      46126.30      41670.70      0.1914937
      138.0000      40058.30      41670.70      0.1473296
      141.0000      33214.40      41670.70      -0.0387090
      144.0000      35074.40      41670.70      0.1204692
      147.0000      30320.70      41670.70      -0.0789451
      150.0000      32714.00      41670.70      -0.0254068
      153.0000      31349.60      41670.70      -0.0654834
      156.0000      36921.90      41670.70      0.1425006
      159.0000      36921.90      41670.70      0.0299759
      162.0000      23998.70      41670.70      -0.3188478
      165.0000      37231.20      41670.70      -0.0143831
      168.0000      37231.20      41670.70      0.0335144
      171.0000      30210.50      41670.70      -0.0137630
      174.0000      45977.80      41670.70      0.1487411
      177.0000      34807.60      41670.70      -0.0829883
      180.0000      41987.40      41670.70      0.0747610
      183.0000      36733.70      41670.70      0.0704490
      186.0000      37098.40      41670.70      -0.0658099
      189.0000      43277.40      41670.70      0.0743312
      192.0000      45758.50      41670.70      -0.0119228
      195.0000      49731.70      41670.70      0.1194039
      198.0000      49731.70      41670.70      0.1033952
      201.0000      54748.00      41670.70      0.1722715
      204.0000      54881.60      41670.70      0.1863320
      207.0000      38036.40      41670.70      -0.1520559
      210.0000      45376.30      41670.70      -0.0146897
      213.0000      41900.30      41670.70      -0.2174128
      216.0000      45892.30      41670.70      0.0118837
      219.0000      45892.30      41670.70      0.0629751
      222.0000      48657.90      41670.70      0.1036102
      225.0000      50696.70      41670.70      0.0665705
      228.0000      42923.90      41670.70      -0.0525048
      231.0000      47100.40      41670.70      0.0301381
      234.0000      60979.40      41670.70      0.1853787
      237.0000      49665.90      41670.70      0.0014909
      240.0000      38232.00      41670.70      -0.2198038
      243.0000      50685.60      41670.70      0.0270711
      246.0000      54936.20      41670.70      0.0428123
      249.0000      51988.70      41670.70      0.0020428
      252.0000      50248.50      41670.70      -0.0218475
      255.0000      51515.80      41670.70      -0.0381290
      258.0000      45466.60      41670.70      -0.0852159
      261.0000      44344.70      41670.70      -0.1868709
      264.0000      41860.40      41670.70      -0.2203935
      267.0000      46105.80      41670.70      0.0072507
      270.0000      53679.70      41670.70      0.0863231
      273.0000      55588.90      41670.70      0.1311171
      276.0000      54629.70      41670.70      0.1034502
      279.0000      61088.40      41670.70      0.1341116
      282.0000      45515.50      41670.70      -0.0544725
      285.0000      58671.20      41670.70      0.1947544
      288.0000      47926.10      41670.70      -0.0635254
      291.0000      58150.80      41670.70      0.0305265
      294.0000      46273.80      41670.70      -0.1258648
      297.0000      51048.00      41670.70      -0.0612696
      300.0000      45902.60      41670.70      -0.2328389
      303.0000      34817.60      41670.70      -0.2767237
      306.0000      50374.70      41670.70      0.0783348
      309.0000      54932.70      41670.70      0.0279950
      312.0000      47353.30      41670.70      -0.0036233
      315.0000      32942.10      41670.70      -0.0887013
      318.0000      47036.70      41670.70      0.0509208
      321.0000      41259.10      41670.70      -0.0933931
      324.0000      60071.30      41670.70      0.2001394
      327.0000      45277.60      41670.70      -0.0523589
      330.0000      46500.90      41670.70      -0.0047094
      333.0000      45018.20      41670.70      -0.0311183
      336.0000      59208.30      41670.70      0.2481479
      339.0000      43877.50      41670.70      0.0211160
      342.0000      30272.50      41670.70      -0.3003222
      345.0000      37781.40      41670.70      -0.0519162
      348.0000      44065.80      41670.70      0.0680977
      351.0000      53855.40      41670.70      0.1992501
      354.0000      38696.30      41670.70      0.0826782
      357.0000      34727.60      41670.70      -0.0631854

       7     121       19.5900     30.0000      1.00000      0.00000
      0.0000      136665.00      94599.30      0.0656968
      3.0000      122784.60      94599.30      0.0690267
      6.0000      102355.20      94599.30      -0.1175863
      9.0000      107633.60      94599.30      0.0153450
      12.0000      78515.00      94599.30      -0.1255726
      15.0000      120168.30      94599.30      0.1043148
      18.0000      79779.60      94599.30      -0.0766114
      21.0000      123659.40      94599.30      0.1570631
      24.0000      123659.40      94599.30      0.1637280
      27.0000      81294.10      94599.30      -0.1510333
      30.0000      67095.00      94599.30      -0.1431116
      33.0000      96117.00      94599.30      0.1116766
      36.0000      66836.20      94599.30      -0.2083152
      39.0000      96093.90      94599.30      0.0551935
      42.0000      56975.70      94599.30      -0.2174884
      45.0000      109045.90      94599.30      0.2396684
      48.0000      91623.50      94599.30      0.0871673
      51.0000      87847.30      94599.30      0.1227521
      54.0000      100323.90      94599.30      0.2192820
      57.0000      77311.70      94599.30      0.0447333
      60.0000      70756.00      94599.30      -0.0068202
      63.0000      72217.40      94599.30      -0.0184799
      66.0000      68279.30      94599.30      0.0168139
      69.0000      71119.30      94599.30      0.0157661
      72.0000      71119.30      94599.30      0.0405487
      75.0000      83136.60      94599.30      0.0473498
      78.0000      55859.10      94599.30      -0.1057136
      81.0000      80308.80      94599.30      0.0978437
      84.0000      74570.30      94599.30      0.0338505
      87.0000      72697.40      94599.30      0.0250532
      90.0000      67811.40      94599.30      -0.0449324
      93.0000      77826.90      94599.30      0.1676564
      96.0000      88768.90      94599.30      0.2025841
      99.0000      88768.90      94599.30      0.2316691
      102.0000      65732.70      94599.30      -0.0074427
      105.0000      52970.10      94599.30      -0.1693623
      108.0000      66425.00      94599.30      -0.0474932
      111.0000      79432.60      94599.30      0.0919779
      114.0000      65649.90      94599.30      -0.0333633
      117.0000      55443.70      94599.30      -0.1046366
      120.0000      57905.40      94599.30      -0.0781934
      123.0000      67736.60      94599.30      -0.0674190
      126.0000      72114.40      94599.30      0.0150642
      129.0000      44635.90      94599.30      -0.2357313
      132.0000      96312.70      94599.30      0.1653344
      135.0000      78297.90      94599.30      0.0631855
      138.0000      84615.90      94599.30      -0.0139348
      141.0000      60527.70      94599.30      -0.1790385
      144.0000      70273.10      94599.30      -0.0826661
      147.0000      76447.70      94599.30      -0.0230964
      150.0000      80354.30      94599.30      -0.0061619
      153.0000      86666.20      94599.30      0.0372046
      156.0000      76859.40      94599.30      -0.0394358
      159.0000      82513.50      94599.30      -0.0291154
      162.0000      59588.80      94599.30      -0.2531464
      165.0000      78324.00      94599.30      -0.1108277
      168.0000      85603.60      94599.30      -0.0057834
      171.0000      69905.60      94599.30      -0.2208057
      174.0000      72021.00      94599.30      -0.0296838
      177.0000      85166.90      94599.30      0.0052721
      180.0000      92782.60      94599.30      0.0289069
      183.0000      111103.80      94599.30      0.1274921
      186.0000      85449.00      94599.30      -0.1116591
      189.0000      111590.20      94599.30      0.0883742
      192.0000      119328.30      94599.30      0.0574739
      195.0000      103893.80      94599.30      0.0718596
      198.0000      125458.40      94599.30      0.0962534
      201.0000      100346.20      94599.30      0.0636312
      204.0000      95593.30      94599.30      0.0356214
      207.0000      85904.00      94599.30      -0.1655028
      210.0000      119421.40      94599.30      0.0037503
      213.0000      127284.30      94599.30      0.1544476
      216.0000      91300.80      94599.30      -0.1793888
      219.0000      97467.80      94599.30      -0.0318025
      222.0000      109232.10      94599.30      -0.1050190
      225.0000      113111.30      94599.30      0.1200816
      228.0000      106188.10      94599.30      0.0116038
      231.0000      125984.00      94599.30      0.1179535
      234.0000      116325.50      94599.30      0.1122998
      237.0000      124104.30      94599.30      0.0640470
      240.0000      124107.70      94599.30      0.0362758
      243.0000      112004.00      94599.30      -0.0286921
      246.0000      136238.40      94599.30      0.0960212
      249.0000      123523.60      94599.30      0.0341573
      252.0000      130696.30      94599.30      0.0756493
      255.0000      87213.10      94599.30      -0.1206921
      258.0000      129043.90      94599.30      -0.0038108
      261.0000      113241.50      94599.30      0.0174539
      264.0000      109535.70      94599.30      -0.0298602
      267.0000      112548.10      94599.30      -0.0211199
      270.0000      104156.30      94599.30      -0.0914849
      273.0000      146512.40      94599.30      0.1967019
      276.0000      118224.20      94599.30      0.0863389
      279.0000      129714.70      94599.30      0.1522023
      282.0000      127027.60      94599.30      0.0309170
      285.0000      114491.70      94599.30      -0.0987892
      288.0000      110893.10      94599.30      -0.0567550
      291.0000      116258.10      94599.30      0.0345899
      294.0000      121080.30      94599.30      0.0018389
      297.0000      132325.80      94599.30      0.0245600
      300.0000      134105.50      94599.30      0.0498099
      303.0000      104944.40      94599.30      -0.0765397
      306.0000      121163.20      94599.30      0.0433675
      309.0000      124101.10      94599.30      -0.0520321
      312.0000      98477.10      94599.30      0.0163649
      315.0000      122063.40      94599.30      0.0917607
      318.0000      77719.60      94599.30      -0.1562075
      321.0000      95796.10      94599.30      -0.1342525
      324.0000      100163.30      94599.30      -0.0582403
      327.0000      102971.70      94599.30      -0.0055336
      330.0000      98527.80      94599.30      -0.0097745
      333.0000      96275.10      94599.30      0.0105185
      336.0000      98201.00      94599.30      -0.0001516
      339.0000      87719.40      94599.30      -0.0406041
      342.0000      76374.40      94599.30      -0.1963916
      345.0000      74210.80      94599.30      -0.1285190
      348.0000      86705.10      94599.30      0.0174998
      351.0000      61716.40      94599.30      -0.2265871
      354.0000      103548.90      94599.30      0.1727701
      357.0000      85874.40      94599.30      0.0947118

       8     121       19.5900     33.0000      1.00000      0.00000
      0.0000      85366.70      93787.50      -0.1597742
      3.0000      89431.40      93787.50      -0.0124326
      6.0000      88533.20      93787.50      -0.0347800
      9.0000      86647.20      93787.50      -0.0086475
      12.0000      91797.60      93787.50      0.0473464
      15.0000      80041.70      93787.50      -0.0403502
      18.0000      76064.30      93787.50      -0.0116712
      21.0000      80461.60      93787.50      0.0041846
      24.0000      69900.70      93787.50      -0.0494869
      27.0000      70130.40      93787.50      -0.0763709
      30.0000      72821.70      93787.50      -0.0247315
      33.0000      72772.60      93787.50      -0.0547628
      36.0000      71542.70      93787.50      0.0004458
      39.0000      68553.00      93787.50      -0.0294898
      42.0000      66724.00      93787.50      0.0275467
      45.0000      65481.10      93787.50      -0.0085560
      48.0000      69790.90      93787.50      0.1103476
      51.0000      79037.90      93787.50      0.1236147
      54.0000      82144.00      93787.50      0.2316205
      57.0000      54027.60      93787.50      -0.1064701
      60.0000      72740.00      93787.50      0.0907637
      63.0000      86604.20      93787.50      0.2784059
      66.0000      72210.50      93787.50      0.0391424
      69.0000      66557.80      93787.50      0.1213773
      72.0000      67502.20      93787.50      0.0447233
      75.0000      52351.60      93787.50      -0.0892510
      78.0000      51308.90      93787.50      -0.1231187
      81.0000      60190.50      93787.50      0.0789261
      84.0000      52223.20      93787.50      -0.1170339
      87.0000      67903.60      93787.50      0.0667475
      90.0000      75826.90      93787.50      0.1429655
      93.0000      90121.10      93787.50      0.3049538
      96.0000      69541.00      93787.50      0.0475615
      99.0000      63448.40      93787.50      -0.0410204
      102.0000      73208.40      93787.50      0.1421349
      105.0000      66373.50      93787.50      -0.0666657
      108.0000      67706.70      93787.50      -0.0003685
      111.0000      59887.20      93787.50      -0.0884672
      114.0000      68080.80      93787.50      -0.0817535
      117.0000      56920.10      93787.50      -0.1759581
      120.0000      92735.60      93787.50      0.2153634
      123.0000      60700.10      93787.50      -0.1466605
      126.0000      59450.20      93787.50      -0.1872549
      129.0000      70880.60      93787.50      0.0411245
      132.0000      63567.50      93787.50      -0.1164186
      135.0000      67690.30      93787.50      -0.1111289
      138.0000      70934.40      93787.50      -0.0657483
      141.0000      86207.60      93787.50      0.0909879
      144.0000      88853.60      93787.50      0.0717974
      147.0000      87076.70      93787.50      0.0733738
      150.0000      83168.20      93787.50      0.0110394
      153.0000      74510.30      93787.50      -0.1065143
      156.0000      82192.10      93787.50      0.0132290
      159.0000      89748.10      93787.50      -0.0006459
      162.0000      75499.20      93787.50      -0.0805988
      165.0000      79164.50      93787.50      -0.0530332
      168.0000      102392.00      93787.50      0.0777538
      171.0000      74353.30      93787.50      -0.1472802
      174.0000      88032.90      93787.50      -0.0352771
      177.0000      91695.00      93787.50      0.0072993
      180.0000      69366.60      93787.50      -0.2230019
      183.0000      100845.90      93787.50      0.0134538
      186.0000      91364.80      93787.50      -0.0562931
      189.0000      99482.50      93787.50      -0.0074135
      192.0000      99482.50      93787.50      0.0113069
      195.0000      97368.90      93787.50      -0.0471729
      198.0000      113523.30      93787.50      0.0430110
      201.0000      102152.80      93787.50      -0.0149379
      204.0000      111326.40      93787.50      0.0001921
      207.0000      97914.80      93787.50      -0.0855882
      210.0000      103500.20      93787.50      -0.0397570
      213.0000      89504.50      93787.50      -0.1273681
      216.0000      109509.30      93787.50      -0.0100801
      219.0000      106053.00      93787.50      -0.0457571
      222.0000      130250.50      93787.50      0.0899422
      225.0000      119286.00      93787.50      0.0162302
      228.0000      144438.00      93787.50      0.1828462
      231.0000      111769.80      93787.50      0.0331279
      234.0000      137509.20      93787.50      0.1963371
      237.0000      120534.50      93787.50      -0.0414519
      240.0000      118662.40      93787.50      0.0374409
      243.0000      132257.10      93787.50      0.1813711
      246.0000      99217.80      93787.50      -0.0794117
      249.0000      154066.00      93787.50      0.1982552
      252.0000      120580.50      93787.50      0.0123632
      255.0000      132899.40      93787.50      0.0019471
      258.0000      124750.80      93787.50      -0.0514683
      261.0000      167025.20      93787.50      0.2235730
      264.0000      125118.60      93787.50      -0.0503877
      267.0000      132235.70      93787.50      0.0641002
      270.0000      130599.60      93787.50      0.0913709
      273.0000      136714.00      93787.50      0.1920416
      276.0000      123759.70      93787.50      0.0171295
      279.0000      116369.20      93787.50      -0.0554493
      282.0000      151007.00      93787.50      0.1791214
      285.0000      99173.80      93787.50      -0.1401773
      288.0000      122569.00      93787.50      -0.0071263
      291.0000      121529.60      93787.50      -0.0506206
      294.0000      94832.60      93787.50      -0.1618664
      297.0000      103565.10      93787.50      -0.1650927
      300.0000      123346.60      93787.50      0.1055784
      303.0000      105466.70      93787.50      -0.1374887
      306.0000      96812.40      93787.50      -0.1914219
      309.0000      145304.10      93787.50      0.1365301
      312.0000      113604.00      93787.50      -0.0743748
      315.0000      103903.20      93787.50      -0.1110881
      318.0000      112190.80      93787.50      -0.0459249
      321.0000      122821.10      93787.50      0.0833816
      324.0000      110356.40      93787.50      0.0231027
      327.0000      118646.50      93787.50      0.0722735
      330.0000      110345.60      93787.50      0.0122136
      333.0000      96188.20      93787.50      -0.1032837
      336.0000      116671.30      93787.50      0.0668351
      339.0000      93594.60      93787.50      -0.0475266
      342.0000      104819.50      93787.50      -0.0126470
      345.0000      104819.50      93787.50      0.0145148
      348.0000      91268.10      93787.50      0.0143502
      351.0000      87276.50      93787.50      -0.0973016
      354.0000      90120.80      93787.50      -0.0117188
      357.0000      93997.50      93787.50      0.0515053

       9     121       19.5900     36.0000      1.00000      0.00000
      0.0000      78153.40      78897.00      -0.0756975
      3.0000      83761.60      78897.00      -0.0046563
      6.0000      75522.80      78897.00      -0.0468733
      9.0000      76508.90      78897.00      0.0058346
      12.0000      75717.20      78897.00      -0.0063181
      15.0000      69094.60      78897.00      -0.0493919
      18.0000      64618.00      78897.00      -0.0719872
      21.0000      46041.80      78897.00      -0.2491901
      24.0000      55806.90      78897.00      -0.1797624
      27.0000      64105.50      78897.00      -0.0375010
      30.0000      61911.40      78897.00      -0.0311226
      33.0000      61908.10      78897.00      -0.0054903
      36.0000      61908.10      78897.00      0.0073804
      39.0000      63970.90      78897.00      0.0728327
      42.0000      67585.10      78897.00      0.1369339
      45.0000      65512.70      78897.00      0.1218303
      48.0000      67423.60      78897.00      0.1440307
      51.0000      68521.80      78897.00      0.1784044
      54.0000      67536.20      78897.00      0.1715731
      57.0000      56180.60      78897.00      0.0336799
      60.0000      59423.90      78897.00      0.0973309
      63.0000      60691.50      78897.00      0.1223749
      66.0000      56841.20      78897.00      0.0874913
      69.0000      61751.30      78897.00      0.1392584
      72.0000      53709.60      78897.00      0.0454955
      75.0000      49904.40      78897.00      -0.0067123
      78.0000      45243.30      78897.00      -0.0749359
      81.0000      53863.90      78897.00      0.0216301
      84.0000      43841.00      78897.00      -0.0987514
      87.0000      47599.30      78897.00      -0.0372788
      90.0000      56991.40      78897.00      0.0663860
      93.0000      54869.20      78897.00      0.0526665
      96.0000      52782.90      78897.00      0.0022918
      99.0000      56629.80      78897.00      0.0705436
      102.0000      54252.60      78897.00      0.0198441
      105.0000      46439.90      78897.00      -0.0923655
      108.0000      55253.90      78897.00      0.0171032
      111.0000      47174.20      78897.00      -0.1137125
      114.0000      52036.00      78897.00      -0.0671233
      117.0000      53605.60      78897.00      -0.0699608
      120.0000      48718.80      78897.00      -0.1204167
      123.0000      58349.40      78897.00      -0.0226627
      126.0000      60046.70      78897.00      -0.0086808
      129.0000      58083.20      78897.00      0.0268262
      132.0000      67706.50      78897.00      0.0676547
      135.0000      68300.40      78897.00      0.0757494
      138.0000      68665.80      78897.00      0.0696909
      141.0000      66880.90      78897.00      0.0323640
      144.0000      67167.10      78897.00      0.0263321
      147.0000      72089.00      78897.00      0.0820965
      150.0000      76986.90      78897.00      0.0870077
      153.0000      68125.60      78897.00      -0.0279481
      156.0000      67566.60      78897.00      -0.0592374
      159.0000      64923.30      78897.00      -0.0833284
      162.0000      65575.40      78897.00      -0.0619590
      165.0000      74310.90      78897.00      0.0089633
      168.0000      65742.60      78897.00      -0.0477874
      171.0000      67557.30      78897.00      -0.0962559
      174.0000      70053.60      78897.00      -0.0619871
      177.0000      70636.10      78897.00      -0.0290315
      180.0000      71908.40      78897.00      -0.0831900
      183.0000      73872.90      78897.00      -0.0445985
      186.0000      76787.70      78897.00      -0.0522241
      189.0000      84102.30      78897.00      0.0123408
      192.0000      78555.10      78897.00      -0.0367128
      195.0000      79460.00      78897.00      -0.0579575
      198.0000      81207.50      78897.00      -0.0643790
      201.0000      79977.80      78897.00      -0.1606092
      204.0000      68896.20      78897.00      -0.2022750
      207.0000      81127.60      78897.00      -0.0684407
      210.0000      86031.30      78897.00      -0.0424078
      213.0000      90003.60      78897.00      -0.0133642
      216.0000      90403.30      78897.00      -0.0111614
      219.0000      99490.40      78897.00      0.0653013
      222.0000      102757.60      78897.00      0.1073504
      225.0000      102435.50      78897.00      0.0926056
      228.0000      99153.00      78897.00      0.0790177
      231.0000      102708.80      78897.00      0.1093072
      234.0000      101772.80      78897.00      0.0960277
      237.0000      101330.40      78897.00      0.0252433
      240.0000      106797.40      78897.00      0.0796170
      243.0000      108198.80      78897.00      0.0943820
      246.0000      111995.30      78897.00      0.0943226
      249.0000      107262.60      78897.00      0.0895917
      252.0000      110659.50      78897.00      0.0606635
      255.0000      109931.50      78897.00      0.0296569
      258.0000      107963.10      78897.00      -0.0147896
      261.0000      102727.00      78897.00      0.0005270
      264.0000      107346.10      78897.00      -0.0333754
      267.0000      112225.50      78897.00      0.0182626
      270.0000      106894.30      78897.00      0.0375751
      273.0000      113060.10      78897.00      0.0615882
      276.0000      106900.40      78897.00      0.0063135
      279.0000      114987.10      78897.00      0.0786151
      282.0000      110204.50      78897.00      0.0309686
      285.0000      107735.50      78897.00      -0.0329740
      288.0000      109406.70      78897.00      0.0269678
      291.0000      101366.30      78897.00      -0.0732308
      294.0000      99139.80      78897.00      -0.0615088
      297.0000      94209.90      78897.00      -0.0861840
      300.0000      99100.70      78897.00      -0.0819763
      303.0000      96214.70      78897.00      -0.0489314
      306.0000      96948.50      78897.00      -0.0354012
      309.0000      118248.10      78897.00      0.0968689
      312.0000      98966.20      78897.00      0.0186334
      315.0000      102252.50      78897.00      0.0449406
      318.0000      101758.30      78897.00      0.0452337
      321.0000      98608.70      78897.00      0.0171646
      324.0000      98114.40      78897.00      0.0185913
      327.0000      101677.50      78897.00      0.0721129
      330.0000      90365.30      78897.00      0.0186231
      333.0000      84933.10      78897.00      -0.0573118
      336.0000      79190.40      78897.00      -0.0966327
      339.0000      81123.60      78897.00      -0.0866627
      342.0000      86394.90      78897.00      -0.0335474
      345.0000      84161.20      78897.00      -0.0021986
      348.0000      90837.70      78897.00      0.0285753
      351.0000      74235.60      78897.00      -0.0878780
      354.0000      77402.70      78897.00      -0.0352040
      357.0000      83934.20      78897.00      0.0439953

       10     121       19.5900     39.0000      1.00000      0.00000
      0.0000      77059.80      79542.10      -0.1281237
      3.0000      75121.70      79542.10      -0.1562477
      6.0000      80076.80      79542.10      -0.0225420
      9.0000      72446.60      79542.10      -0.0678989
      12.0000      71525.90      79542.10      -0.0800546
      15.0000      67861.50      79542.10      -0.0755728
      18.0000      63163.50      79542.10      -0.1363992
      21.0000      54951.40      79542.10      -0.2063911
      24.0000      60177.40      79542.10      -0.1386710
      27.0000      75392.10      79542.10      0.0408646
      30.0000      67139.90      79542.10      -0.0312305
      33.0000      78683.10      79542.10      0.1256294
      36.0000      65348.30      79542.10      0.0004750
      39.0000      72201.00      79542.10      0.0904043
      42.0000      73096.80      79542.10      0.1436164
      45.0000      80151.70      79542.10      0.2222531
      48.0000      76740.30      79542.10      0.1958464
      51.0000      76173.80      79542.10      0.2352942
      54.0000      71391.90      79542.10      0.1946959
      57.0000      74693.10      79542.10      0.2343713
      60.0000      72657.30      79542.10      0.2279348
      63.0000      69713.80      79542.10      0.1781190
      66.0000      57671.60      79542.10      0.0331957
      69.0000      62671.30      79542.10      0.1247388
      72.0000      62520.20      79542.10      0.0956303
      75.0000      55527.30      79542.10      0.0227201
      78.0000      53168.00      79542.10      -0.0098422
      81.0000      53168.00      79542.10      -0.0358231
      84.0000      46250.40      79542.10      -0.1219469
      87.0000      49204.40      79542.10      -0.0808384
      90.0000      51671.90      79542.10      -0.0493514
      93.0000      58562.60      79542.10      0.0445186
      96.0000      64931.90      79542.10      0.1106490
      99.0000      51642.90      79542.10      -0.0554695
      102.0000      46601.50      79542.10      -0.1095303
      105.0000      55105.10      79542.10      -0.0544086
      108.0000      46162.90      79542.10      -0.1328505
      111.0000      48381.80      79542.10      -0.1527115
      114.0000      57045.50      79542.10      -0.0571564
      117.0000      55739.90      79542.10      -0.0572955
      120.0000      57026.20      79542.10      -0.0537886
      123.0000      63219.50      79542.10      -0.0109239
      126.0000      62204.30      79542.10      -0.0211885
      129.0000      67447.20      79542.10      0.0294330
      132.0000      75227.30      79542.10      0.1058154
      135.0000      75868.50      79542.10      0.1051997
      138.0000      71664.70      79542.10      0.0544559
      141.0000      70596.40      79542.10      0.0300836
      144.0000      75749.20      79542.10      0.0955794
      147.0000      72415.80      79542.10      0.0318591
      150.0000      73904.50      79542.10      0.0743725
      153.0000      73586.10      79542.10      0.0460146
      156.0000      64165.40      79542.10      -0.0584688
      159.0000      65864.70      79542.10      -0.0709014
      162.0000      73497.50      79542.10      -0.0164139
      165.0000      63324.10      79542.10      -0.0966756
      168.0000      65562.60      79542.10      -0.1373168
      171.0000      61607.30      79542.10      -0.1552127
      174.0000      70027.20      79542.10      -0.0899010
      177.0000      66186.10      79542.10      -0.0993366
      180.0000      67497.40      79542.10      -0.1451359
      183.0000      60616.60      79542.10      -0.2096089
      186.0000      80973.70      79542.10      -0.0203329
      189.0000      82361.20      79542.10      -0.0391528
      192.0000      77778.30      79542.10      -0.0805794
      195.0000      84402.70      79542.10      -0.0430279
      198.0000      76353.70      79542.10      -0.1274364
      201.0000      75442.40      79542.10      -0.1709318
      204.0000      77551.90      79542.10      -0.1321481
      207.0000      82610.50      79542.10      -0.0240991
      210.0000      82181.60      79542.10      -0.0652900
      213.0000      89678.30      79542.10      0.0460855
      216.0000      90556.80      79542.10      -0.0119395
      219.0000      92408.60      79542.10      0.0351760
      222.0000      102216.90      79542.10      0.1106970
      225.0000      99265.90      79542.10      0.1252017
      228.0000      99799.30      79542.10      0.1112339
      231.0000      111104.80      79542.10      0.1877362
      234.0000      113267.50      79542.10      0.1761922
      237.0000      111597.20      79542.10      0.1809144
      240.0000      115275.40      79542.10      0.1938288
      243.0000      109155.10      79542.10      0.1338500
      246.0000      107902.60      79542.10      0.0567599
      249.0000      117184.00      79542.10      0.1455821
      252.0000      107991.20      79542.10      0.0802941
      255.0000      111647.90      79542.10      0.0635248
      258.0000      110468.50      79542.10      0.0400731
      261.0000      102313.10      79542.10      -0.0166349
      264.0000      102132.80      79542.10      -0.0587683
      267.0000      104373.10      79542.10      -0.0291209
      270.0000      105616.50      79542.10      -0.0088397
      273.0000      110007.20      79542.10      0.0570283
      276.0000      107805.80      79542.10      0.0760093
      279.0000      106851.80      79542.10      -0.0054564
      282.0000      109973.20      79542.10      -0.0134592
      285.0000      96563.60      79542.10      -0.0571553
      288.0000      106489.30      79542.10      -0.0399543
      291.0000      93051.50      79542.10      -0.1180736
      294.0000      93309.00      79542.10      -0.0705265
      297.0000      99744.50      79542.10      -0.0339266
      300.0000      97942.10      79542.10      -0.0388773
      303.0000      91535.70      79542.10      -0.0500714
      306.0000      93766.90      79542.10      -0.0389725
      309.0000      93766.90      79542.10      -0.0112326
      312.0000      93766.90      79542.10      0.0289659
      315.0000      93766.90      79542.10      0.0341773
      318.0000      93766.90      79542.10      0.0168655
      321.0000      91603.20      79542.10      0.0000573
      324.0000      97232.70      79542.10      0.0703975
      327.0000      90019.30      79542.10      0.0071784
      330.0000      99349.20      79542.10      0.0916638
      333.0000      93377.80      79542.10      0.0530592
      336.0000      90294.80      79542.10      -0.0030347
      339.0000      83109.90      79542.10      -0.0422748
      342.0000      79267.60      79542.10      -0.0296625
      345.0000      82965.00      79542.10      -0.0289074
      348.0000      67664.50      79542.10      -0.1372815
      351.0000      71818.70      79542.10      -0.1022458
      354.0000      69359.80      79542.10      -0.0734238
      357.0000      74211.30      79542.10      -0.0231500

       11     121       19.5900     42.0000      1.00000      0.00000
      0.0000      63519.60      73670.50      -0.2097726
      3.0000      72421.60      73670.50      -0.0878975
      6.0000      67226.60      73670.50      -0.0880408
      9.0000      71088.80      73670.50      -0.0625876
      12.0000      59007.30      73670.50      -0.1625723
      15.0000      55833.30      73670.50      -0.1871082
      18.0000      56231.40      73670.50      -0.1717641
      21.0000      47215.00      73670.50      -0.2038865
      24.0000      56232.70      73670.50      -0.1022686
      27.0000      55183.10      73670.50      -0.0957466
      30.0000      55831.00      73670.50      -0.0344154
      33.0000      59301.20      73670.50      0.0349026
      36.0000      54757.90      73670.50      -0.0159533
      39.0000      58501.50      73670.50      0.0351984
      42.0000      66983.00      73670.50      0.1784510
      45.0000      73096.00      73670.50      0.2971131
      48.0000      73775.00      73670.50      0.3310344
      51.0000      67400.00      73670.50      0.2557789
      54.0000      69213.50      73670.50      0.2944422
      57.0000      71629.20      73670.50      0.3807269
      60.0000      62736.00      73670.50      0.2521020
      63.0000      58470.50      73670.50      0.1784501
      66.0000      47560.60      73670.50      0.0255038
      69.0000      50311.90      73670.50      0.0753663
      72.0000      45090.00      73670.50      0.0099320
      75.0000      49112.10      73670.50      0.0791491
      78.0000      47234.80      73670.50      0.0385179
      81.0000      46224.80      73670.50      0.0267565
      84.0000      44044.80      73670.50      -0.0018705
      87.0000      44783.90      73670.50      -0.0093962
      90.0000      43290.40      73670.50      -0.0384764
      93.0000      40837.60      73670.50      -0.0582707
      96.0000      49483.90      73670.50      0.0601368
      99.0000      49002.80      73670.50      0.0738091
      102.0000      42262.90      73670.50      -0.0488334
      105.0000      42925.60      73670.50      -0.0699695
      108.0000      43289.70      73670.50      -0.1023113
      111.0000      45146.60      73670.50      -0.0730690
      114.0000      44562.60      73670.50      -0.0701022
      117.0000      39240.80      73670.50      -0.1383724
      120.0000      50517.60      73670.50      0.0041031
      123.0000      50903.80      73670.50      -0.0075907
      126.0000      54511.50      73670.50      0.0356640
      129.0000      54511.50      73670.50      0.0248653
      132.0000      56466.10      73670.50      0.0463854
      135.0000      65929.10      73670.50      0.1898213
      138.0000      69180.80      73670.50      0.1935695
      141.0000      58816.00      73670.50      0.0591617
      144.0000      67615.10      73670.50      0.1555998
      147.0000      69596.80      73670.50      0.1340076
      150.0000      62590.20      73670.50      0.0670493
      153.0000      62037.60      73670.50      0.0414232
      156.0000      54369.60      73670.50      -0.0662318
      159.0000      56192.20      73670.50      -0.0900823
      162.0000      59347.60      73670.50      -0.0779121
      165.0000      53492.00      73670.50      -0.1492126
      168.0000      56217.80      73670.50      -0.1520009
      171.0000      52959.50      73670.50      -0.2148767
      174.0000      55122.10      73670.50      -0.1757847
      177.0000      63329.00      73670.50      -0.1026923
      180.0000      54881.60      73670.50      -0.2203260
      183.0000      61260.70      73670.50      -0.1235775
      186.0000      68291.00      73670.50      -0.0798055
      189.0000      61843.20      73670.50      -0.1224673
      192.0000      62014.20      73670.50      -0.1745496
      195.0000      60321.90      73670.50      -0.2045261
      198.0000      59635.20      73670.50      -0.2085761
      201.0000      72426.50      73670.50      -0.1432040
      204.0000      70058.40      73670.50      -0.1191575
      207.0000      71255.00      73670.50      -0.1149571
      210.0000      81853.60      73670.50      -0.0245963
      213.0000      85734.50      73670.50      0.0250244
      216.0000      83437.80      73670.50      -0.0201179
      219.0000      81172.00      73670.50      -0.0172481
      222.0000      86941.40      73670.50      0.0781420
      225.0000      93569.10      73670.50      0.1668178
      228.0000      96346.40      73670.50      0.1926346
      231.0000      95731.20      73670.50      0.1478427
      234.0000      96254.40      73670.50      0.1627771
      237.0000      108350.20      73670.50      0.2671721
      240.0000      105033.90      73670.50      0.1825946
      243.0000      99349.90      73670.50      0.1106373
      246.0000      99648.60      73670.50      0.0367325
      249.0000      101586.00      73670.50      0.0660231
      252.0000      104565.00      73670.50      0.0479772
      255.0000      107194.70      73670.50      0.0903165
      258.0000      103281.20      73670.50      0.0461611
      261.0000      104612.90      73670.50      0.0445322
      264.0000      106448.30      73670.50      0.0380886
      267.0000      101432.40      73670.50      0.0046907
      270.0000      100346.50      73670.50      -0.0169891
      273.0000      106909.20      73670.50      0.0068985
      276.0000      105448.30      73670.50      0.0519863
      279.0000      113988.90      73670.50      0.1022440
      282.0000      108166.30      73670.50      0.0134756
      285.0000      100296.50      73670.50      -0.0387568
      288.0000      90361.60      73670.50      -0.1066650
      291.0000      93603.40      73670.50      -0.0759755
      294.0000      99597.00      73670.50      -0.0424834
      297.0000      103582.30      73670.50      -0.0521158
      300.0000      102482.60      73670.50      0.0090870
      303.0000      99966.80      73670.50      -0.0081125
      306.0000      101532.10      73670.50      0.0222774
      309.0000      101192.60      73670.50      0.0179739
      312.0000      103159.30      73670.50      0.0415459
      315.0000      114033.80      73670.50      0.1705957
      318.0000      106268.60      73670.50      0.1343024
      321.0000      107092.40      73670.50      0.0815968
      324.0000      107396.70      73670.50      0.1334023
      327.0000      97049.80      73670.50      0.0713343
      330.0000      104222.40      73670.50      0.0876476
      333.0000      100953.30      73670.50      0.0645198
      336.0000      96541.70      73670.50      -0.0028771
      339.0000      85660.10      73670.50      -0.0699202
      342.0000      81252.90      73670.50      -0.0823760
      345.0000      80150.60      73670.50      -0.1130894
      348.0000      72903.10      73670.50      -0.1500432
      351.0000      66109.90      73670.50      -0.2127484
      354.0000      71549.10      73670.50      -0.1489041
      357.0000      70346.70      73670.50      -0.1111558

       12     121       19.5900     45.0000      1.00000      0.00000
      0.0000      65053.80      72660.10      -0.1999346
      3.0000      74953.00      72660.10      -0.0764025
      6.0000      75177.80      72660.10      -0.0802220
      9.0000      75129.40      72660.10      -0.0666259
      12.0000      63323.90      72660.10      -0.1182173
      15.0000      66216.00      72660.10      -0.1073041
      18.0000      71725.70      72660.10      -0.0377716
      21.0000      62966.70      72660.10      -0.0744138
      24.0000      67789.50      72660.10      -0.0181730
      27.0000      61608.30      72660.10      -0.0490521
      30.0000      63016.60      72660.10      -0.0147255
      33.0000      52410.30      72660.10      -0.1076600
      36.0000      60256.30      72660.10      -0.0066969
      39.0000      64262.80      72660.10      0.0579801
      42.0000      61753.50      72660.10      0.0605852
      45.0000      68427.20      72660.10      0.1780074
      48.0000      68427.20      72660.10      0.1995629
      51.0000      71659.80      72660.10      0.2669377
      54.0000      64891.40      72660.10      0.1836305
      57.0000      57162.30      72660.10      0.1156161
      60.0000      61199.60      72660.10      0.1836722
      63.0000      60828.60      72660.10      0.1557151
      66.0000      49617.30      72660.10      -0.0088146
      69.0000      45638.80      72660.10      0.0829267
      72.0000      44861.40      72660.10      -0.0339894
      75.0000      55061.60      72660.10      0.1209723
      78.0000      57735.30      72660.10      0.1825970
      81.0000      55396.00      72660.10      0.1269711
      84.0000      48251.50      72660.10      0.0505073
      87.0000      51207.40      72660.10      0.0873004
      90.0000      57849.10      72660.10      0.1825620
      93.0000      55115.10      72660.10      0.1438376
      96.0000      58783.70      72660.10      0.1937416
      99.0000      48781.10      72660.10      0.0341865
      102.0000      54613.90      72660.10      0.1162657
      105.0000      45750.50      72660.10      -0.0332377
      108.0000      44968.80      72660.10      -0.0688905
      111.0000      50960.30      72660.10      0.0377029
      114.0000      49274.30      72660.10      0.0013350
      117.0000      49753.40      72660.10      -0.0367329
      120.0000      48144.80      72660.10      -0.0631435
      123.0000      51978.50      72660.10      -0.0147494
      126.0000      46636.90      72660.10      -0.1078501
      129.0000      52819.20      72660.10      -0.0184938
      132.0000      54101.50      72660.10      0.0119240
      135.0000      58651.00      72660.10      0.0487046
      138.0000      51962.20      72660.10      0.0018745
      141.0000      58627.70      72660.10      0.0358841
      144.0000      55640.40      72660.10      0.0027632
      147.0000      57941.30      72660.10      0.0003024
      150.0000      57699.20      72660.10      -0.0209694
      153.0000      52696.40      72660.10      -0.0860526
      156.0000      50436.90      72660.10      -0.1559558
      159.0000      51819.30      72660.10      -0.1596105
      162.0000      48869.50      72660.10      -0.2009155
      165.0000      49886.40      72660.10      -0.1936550
      168.0000      56601.00      72660.10      -0.1258070
      171.0000      61571.10      72660.10      -0.0817562
      174.0000      58736.60      72660.10      -0.1177150
      177.0000      54865.20      72660.10      -0.1303488
      180.0000      63571.90      72660.10      -0.1477411
      183.0000      70073.10      72660.10      -0.0498920
      186.0000      64909.80      72660.10      -0.0979188
      189.0000      64075.30      72660.10      -0.1051248
      192.0000      73067.70      72660.10      -0.0720155
      195.0000      65608.80      72660.10      -0.1271268
      198.0000      65577.20      72660.10      -0.1019783
      201.0000      73770.60      72660.10      -0.0695872
      204.0000      71537.40      72660.10      -0.0656361
      207.0000      76087.90      72660.10      -0.0562946
      210.0000      77104.70      72660.10      -0.0404542
      213.0000      79967.00      72660.10      -0.0713920
      216.0000      79552.90      72660.10      -0.0337846
      219.0000      80387.70      72660.10      -0.0047181
      222.0000      85311.20      72660.10      0.0212932
      225.0000      91116.10      72660.10      0.1054030
      228.0000      93022.40      72660.10      0.1210100
      231.0000      96307.50      72660.10      0.1661952
      234.0000      94001.70      72660.10      0.1083087
      237.0000      100893.00      72660.10      0.1124986
      240.0000      102201.50      72660.10      0.1464462
      243.0000      93021.90      72660.10      0.0752364
      246.0000      88321.30      72660.10      -0.0320579
      249.0000      130687.60      72660.10      0.2495868
      252.0000      98232.70      72660.10      0.0058419
      255.0000      100187.20      72660.10      0.0851862
      258.0000      106445.60      72660.10      0.1458565
      261.0000      99369.70      72660.10      0.0776372
      264.0000      107462.30      72660.10      0.0851438
      267.0000      105877.70      72660.10      0.0912143
      270.0000      106144.40      72660.10      0.1350120
      273.0000      107215.40      72660.10      0.1217285
      276.0000      107433.20      72660.10      0.1450728
      279.0000      103769.30      72660.10      0.0506135
      282.0000      104906.20      72660.10      0.0947429
      285.0000      99103.10      72660.10      -0.0060320
      288.0000      93085.20      72660.10      -0.0550251
      291.0000      102029.00      72660.10      0.0449158
      294.0000      99975.60      72660.10      0.0183956
      297.0000      88394.70      72660.10      -0.0616659
      300.0000      89031.90      72660.10      -0.0679558
      303.0000      90435.30      72660.10      -0.0348467
      306.0000      85607.90      72660.10      -0.1018793
      309.0000      90574.70      72660.10      -0.0284641
      312.0000      96985.50      72660.10      0.0270861
      315.0000      93349.20      72660.10      0.0283971
      318.0000      105794.00      72660.10      0.0860237
      321.0000      94261.00      72660.10      0.0406073
      324.0000      96911.80      72660.10      0.0489201
      327.0000      90426.20      72660.10      0.0167455
      330.0000      87026.40      72660.10      -0.0051894
      333.0000      86143.00      72660.10      -0.0311336
      336.0000      75332.10      72660.10      -0.1226433
      339.0000      71400.00      72660.10      -0.1398698
      342.0000      69730.00      72660.10      -0.1592231
      345.0000      69346.40      72660.10      -0.1465160
      348.0000      69251.10      72660.10      -0.1024926
      351.0000      68023.80      72660.10      -0.0762147
      354.0000      66474.10      72660.10      -0.0881054
      357.0000      71755.80      72660.10      -0.0342800

       13     121       19.5900     48.0000      1.00000      0.00000
      0.0000      74844.10      69411.30      -0.1128625
      3.0000      74006.00      69411.30      -0.0891006
      6.0000      77605.00      69411.30      -0.0125029
      9.0000      77321.00      69411.30      0.0442390
      12.0000      71341.50      69411.30      -0.0223081
      15.0000      68141.60      69411.30      -0.0473141
      18.0000      65498.80      69411.30      -0.0515461
      21.0000      69088.50      69411.30      -0.0136489
      24.0000      60840.50      69411.30      -0.0411104
      27.0000      54757.90      69411.30      -0.0860220
      30.0000      55898.50      69411.30      -0.0193920
      33.0000      55215.10      69411.30      -0.0383042
      36.0000      45572.00      69411.30      -0.1391150
      39.0000      54827.20      69411.30      -0.0004524
      42.0000      58394.60      69411.30      0.0458442
      45.0000      49384.10      69411.30      -0.0453033
      48.0000      54030.30      69411.30      0.0593357
      51.0000      64541.10      69411.30      0.2258175
      54.0000      47959.70      69411.30      -0.0176737
      57.0000      49661.90      69411.30      0.0295074
      60.0000      50862.20      69411.30      0.0908024
      63.0000      55417.90      69411.30      0.1538980
      66.0000      46698.00      69411.30      0.0309860
      69.0000      47173.20      69411.30      0.0610375
      72.0000      34467.30      69411.30      -0.1126017
      75.0000      44331.00      69411.30      0.0188064
      78.0000      44672.80      69411.30      0.0480041
      81.0000      45786.60      69411.30      0.0800889
      84.0000      38858.60      69411.30      -0.0200729
      87.0000      43620.20      69411.30      0.0572408
      90.0000      55203.20      69411.30      0.2144612
      93.0000      55853.40      69411.30      0.2288586
      96.0000      67920.30      69411.30      0.4194686
      99.0000      66521.80      69411.30      0.3804465
      102.0000      52044.70      69411.30      0.1486847
      105.0000      49612.40      69411.30      0.0896542
      108.0000      49289.00      69411.30      0.0677727
      111.0000      48505.50      69411.30      0.0619792
      114.0000      46849.20      69411.30      0.0198304
      117.0000      40881.60      69411.30      -0.0953655
      120.0000      43779.60      69411.30      -0.0783150
      123.0000      52435.50      69411.30      0.0404520
      126.0000      47716.80      69411.30      -0.0429368
      129.0000      45513.30      69411.30      -0.0751110
      132.0000      45418.10      69411.30      -0.0953945
      135.0000      55627.30      69411.30      0.0509255
      138.0000      52707.90      69411.30      -0.0320363
      141.0000      47358.60      69411.30      -0.1109355
      144.0000      48948.60      69411.30      -0.0892868
      147.0000      52374.80      69411.30      -0.0576752
      150.0000      51247.50      69411.30      -0.0695544
      153.0000      51705.80      69411.30      -0.0910307
      156.0000      48616.10      69411.30      -0.1390724
      159.0000      58336.40      69411.30      -0.0360552
      162.0000      47353.70      69411.30      -0.1923472
      165.0000      52812.00      69411.30      -0.1049777
      168.0000      53439.40      69411.30      -0.0630144
      171.0000      54468.80      69411.30      -0.0720518
      174.0000      60915.90      69411.30      -0.0173817
      177.0000      51253.70      69411.30      -0.1219277
      180.0000      58675.20      69411.30      -0.1228426
      183.0000      61433.10      69411.30      -0.0983564
      186.0000      67275.60      69411.30      -0.0261915
      189.0000      76135.60      69411.30      0.0584035
      192.0000      69285.50      69411.30      -0.0327353
      195.0000      66312.10      69411.30      -0.0743150
      198.0000      67196.60      69411.30      -0.0774972
      201.0000      62867.20      69411.30      -0.0981012
      204.0000      73007.40      69411.30      -0.0465478
      207.0000      74511.00      69411.30      -0.0643281
      210.0000      84148.60      69411.30      0.0247146
      213.0000      77597.40      69411.30      -0.0356940
      216.0000      78112.60      69411.30      -0.0857140
      219.0000      80867.80      69411.30      -0.0102061
      222.0000      77091.10      69411.30      -0.0196142
      225.0000      80434.90      69411.30      -0.0462598
      228.0000      88424.90      69411.30      0.0466792
      231.0000      90672.30      69411.30      0.1316446
      234.0000      84017.50      69411.30      -0.0277034
      237.0000      87597.50      69411.30      0.0109563
      240.0000      97257.40      69411.30      0.0928727
      243.0000      93548.20      69411.30      0.0947140
      246.0000      93549.80      69411.30      0.0334218
      249.0000      98453.80      69411.30      0.0721455
      252.0000      103453.60      69411.30      0.0172623
      255.0000      96550.60      69411.30      0.0339333
      258.0000      102859.50      69411.30      0.0808442
      261.0000      106798.00      69411.30      0.1154159
      264.0000      109315.50      69411.30      0.0809108
      267.0000      110287.90      69411.30      0.1198871
      270.0000      103391.00      69411.30      0.1512799
      273.0000      105539.50      69411.30      0.1688020
      276.0000      107430.10      69411.30      0.2666758
      279.0000      104107.40      69411.30      0.2292482
      282.0000      103724.80      69411.30      0.1199191
      285.0000      99112.40      69411.30      0.0668345
      288.0000      96054.10      69411.30      0.0401634
      291.0000      99989.70      69411.30      0.0612225
      294.0000      96976.10      69411.30      0.0263325
      297.0000      90920.60      69411.30      -0.0594145
      300.0000      85581.70      69411.30      -0.0797268
      303.0000      86505.40      69411.30      -0.0164845
      306.0000      84143.00      69411.30      -0.0652891
      309.0000      85986.80      69411.30      -0.0652664
      312.0000      82707.50      69411.30      -0.0894621
      315.0000      87724.10      69411.30      0.0134908
      318.0000      77781.80      69411.30      -0.0791919
      321.0000      77346.90      69411.30      -0.1121673
      324.0000      79648.20      69411.30      -0.0808876
      327.0000      78500.40      69411.30      -0.0656479
      330.0000      80766.70      69411.30      -0.0477570
      333.0000      75257.00      69411.30      -0.0839737
      336.0000      73608.60      69411.30      -0.1068501
      339.0000      72385.70      69411.30      -0.0562894
      342.0000      65824.00      69411.30      -0.1623177
      345.0000      72688.70      69411.30      -0.0594615
      348.0000      81030.50      69411.30      0.0379636
      351.0000      76376.50      69411.30      0.0176631
      354.0000      73209.40      69411.30      0.0386627
      357.0000      71765.50      69411.30      0.0012222

       14     121       19.5900     51.0000      1.00000      0.00000
      0.0000      65525.30      60126.20      -0.1205790
      3.0000      75728.40      60126.20      -0.0059525
      6.0000      83143.10      60126.20      0.1459371
      9.0000      79188.50      60126.20      0.1300417
      12.0000      67172.70      60126.20      0.0067894
      15.0000      59806.20      60126.20      -0.0662712
      18.0000      57219.20      60126.20      -0.0809428
      21.0000      52643.90      60126.20      -0.0858277
      24.0000      46072.20      60126.20      -0.1798287
      27.0000      43476.40      60126.20      -0.1644815
      30.0000      42256.00      60126.20      -0.1818277
      33.0000      52328.40      60126.20      -0.0002203
      36.0000      45671.80      60126.20      -0.0636902
      39.0000      44844.80      60126.20      -0.0869515
      42.0000      47963.20      60126.20      0.0059346
      45.0000      45644.00      60126.20      0.0261754
      48.0000      43078.20      60126.20      -0.0357546
      51.0000      39640.10      60126.20      -0.0467274
      54.0000      38978.40      60126.20      -0.0281164
      57.0000      39152.30      60126.20      -0.0157491
      60.0000      42900.80      60126.20      0.0663998
      63.0000      43970.70      60126.20      0.1053436
      66.0000      40091.60      60126.20      0.0453205
      69.0000      45337.90      60126.20      0.1641899
      72.0000      37538.30      60126.20      0.0199815
      75.0000      31628.50      60126.20      -0.0770139
      78.0000      41052.50      60126.20      0.1209371
      81.0000      39060.60      60126.20      0.0860707
      84.0000      37250.80      60126.20      0.0463170
      87.0000      42372.30      60126.20      0.1063701
      90.0000      48054.00      60126.20      0.2585114
      93.0000      46922.10      60126.20      0.2452978
      96.0000      58435.60      60126.20      0.4964588
      99.0000      59153.80      60126.20      0.5031166
      102.0000      67027.60      60126.20      0.6342614
      105.0000      43223.10      60126.20      0.1565356
      108.0000      36966.10      60126.20      0.0270014
      111.0000      46559.60      60126.20      0.1952068
      114.0000      32154.00      60126.20      -0.1120577
      117.0000      29498.20      60126.20      -0.1746532
      120.0000      35715.30      60126.20      -0.0686406
      123.0000      47028.90      60126.20      0.1237381
      126.0000      39147.20      60126.20      -0.0219820
      129.0000      38944.50      60126.20      -0.0510846
      132.0000      40995.50      60126.20      -0.0588942
      135.0000      29797.00      60126.20      -0.2237281
      138.0000      45698.90      60126.20      -0.0158363
      141.0000      38565.70      60126.20      -0.1104402
      144.0000      39467.60      60126.20      -0.1132650
      147.0000      41196.10      60126.20      -0.1291961
      150.0000      45702.20      60126.20      -0.0259547
      153.0000      42106.70      60126.20      -0.1073473
      156.0000      40917.70      60126.20      -0.1335235
      159.0000      39716.10      60126.20      -0.1484572
      162.0000      43297.50      60126.20      -0.1217077
      165.0000      45639.50      60126.20      -0.0953996
      168.0000      34419.60      60126.20      -0.2184434
      171.0000      46751.10      60126.20      -0.1075068
      174.0000      47095.90      60126.20      -0.0625170
      177.0000      53131.00      60126.20      -0.0038557
      180.0000      54218.40      60126.20      -0.0865924
      183.0000      54681.50      60126.20      -0.0389649
      186.0000      65642.60      60126.20      0.1205853
      189.0000      65263.00      60126.20      0.0990935
      192.0000      60611.40      60126.20      -0.0085670
      195.0000      57525.10      60126.20      -0.0778654
      198.0000      56371.40      60126.20      -0.1027089
      201.0000      62273.00      60126.20      -0.0642001
      204.0000      55419.80      60126.20      -0.1715546
      207.0000      62171.00      60126.20      -0.1176744
      210.0000      58604.00      60126.20      -0.1613276
      213.0000      65546.00      60126.20      -0.0304905
      216.0000      67657.90      60126.20      -0.0509855
      219.0000      61381.50      60126.20      -0.1161170
      222.0000      68375.70      60126.20      -0.0274116
      225.0000      77253.80      60126.20      0.0405276
      228.0000      68472.40      60126.20      -0.0586145
      231.0000      75520.40      60126.20      -0.0190511
      234.0000      79645.30      60126.20      0.0127189
      237.0000      79178.70      60126.20      0.0092130
      240.0000      80886.60      60126.20      0.0534818
      243.0000      83115.30      60126.20      0.0815217
      246.0000      82768.10      60126.20      0.0464137
      249.0000      86716.10      60126.20      0.1234051
      252.0000      84285.10      60126.20      0.0360744
      255.0000      86103.00      60126.20      -0.0005328
      258.0000      90834.80      60126.20      0.1186762
      261.0000      90628.20      60126.20      0.0978813
      264.0000      88690.00      60126.20      0.0639405
      267.0000      78804.70      60126.20      0.0248678
      270.0000      90443.90      60126.20      0.1690239
      273.0000      93097.10      60126.20      0.1785425
      276.0000      102673.50      60126.20      0.3553844
      279.0000      102326.00      60126.20      0.3554849
      282.0000      99919.10      60126.20      0.4003578
      285.0000      93137.60      60126.20      0.1361385
      288.0000      91213.70      60126.20      0.0646862
      291.0000      91252.00      60126.20      0.1440331
      294.0000      81031.70      60126.20      -0.0625226
      297.0000      78667.10      60126.20      -0.1046721
      300.0000      79512.00      60126.20      -0.0474461
      303.0000      80870.10      60126.20      0.0537102
      306.0000      80520.30      60126.20      -0.0120127
      309.0000      76183.00      60126.20      -0.0500059
      312.0000      67953.80      60126.20      -0.1044171
      315.0000      73973.30      60126.20      -0.1342526
      318.0000      64834.50      60126.20      -0.0953219
      321.0000      71075.90      60126.20      -0.0889253
      324.0000      68857.40      60126.20      -0.0984176
      327.0000      60748.20      60126.20      -0.1563516
      330.0000      71127.40      60126.20      -0.0236136
      333.0000      65929.60      60126.20      -0.0896770
      336.0000      65050.10      60126.20      -0.0973564
      339.0000      66302.10      60126.20      -0.0819605
      342.0000      62412.50      60126.20      -0.0870275
      345.0000      62097.40      60126.20      -0.0625016
      348.0000      66724.40      60126.20      -0.0625676
      351.0000      57626.90      60126.20      -0.0721954
      354.0000      65052.80      60126.20      0.0376816
      357.0000      61824.10      60126.20      0.0594040

       15     121       19.5900     54.0000      1.00000      0.00000
      0.0000      65932.60      53656.20      -0.1246393
      3.0000      73948.10      53656.20      0.0741480
      6.0000      75430.10      53656.20      0.1217228
      9.0000      67341.70      53656.20      0.0318998
      12.0000      63525.20      53656.20      0.0360498
      15.0000      53342.30      53656.20      -0.0906453
      18.0000      49202.80      53656.20      -0.1040117
      21.0000      46964.20      53656.20      -0.0528793
      24.0000      44689.30      53656.20      -0.1268652
      27.0000      38116.10      53656.20      -0.2249002
      30.0000      33896.00      53656.20      -0.2387895
      33.0000      44708.80      53656.20      -0.0453824
      36.0000      36134.70      53656.20      -0.1163949
      39.0000      34752.80      53656.20      -0.1486143
      42.0000      43346.10      53656.20      0.0542766
      45.0000      41272.00      53656.20      0.0398552
      48.0000      38393.00      53656.20      0.0081470
      51.0000      39166.10      53656.20      0.0557732
      54.0000      37826.30      53656.20      0.0319245
      57.0000      41334.50      53656.20      0.1484879
      60.0000      27171.80      53656.20      -0.1047145
      63.0000      36799.20      53656.20      0.0512582
      66.0000      38982.90      53656.20      0.1570753
      69.0000      31384.20      53656.20      0.0269255
      72.0000      29986.40      53656.20      -0.0018133
      75.0000      37489.00      53656.20      0.1580255
      78.0000      33404.80      53656.20      0.0749091
      81.0000      29711.70      53656.20      0.0294930
      84.0000      25299.00      53656.20      -0.0907644
      87.0000      32971.70      53656.20      0.1042790
      90.0000      43423.40      53656.20      0.3456146
      93.0000      44900.00      53656.20      0.3991583
      96.0000      45853.60      53656.20      0.4211036
      99.0000      45980.10      53656.20      0.4339287
      102.0000      40446.60      53656.20      0.2711273
      105.0000      41736.70      53656.20      0.2808992
      108.0000      35451.90      53656.20      0.1109237
      111.0000      36726.10      53656.20      0.1004221
      114.0000      36726.10      53656.20      0.0664968
      117.0000      32881.90      53656.20      -0.0304404
      120.0000      36469.10      53656.20      0.0408649
      123.0000      33341.10      53656.20      -0.0581839
      126.0000      31856.30      53656.20      -0.0913485
      129.0000      34500.50      53656.20      -0.0980770
      132.0000      36922.90      53656.20      -0.0601615
      135.0000      37642.30      53656.20      -0.0355457
      138.0000      39264.80      53656.20      -0.0072163
      141.0000      44723.10      53656.20      0.0829443
      144.0000      37208.50      53656.20      -0.0697252
      147.0000      41037.00      53656.20      -0.0086793
      150.0000      36443.10      53656.20      -0.0980367
      153.0000      35085.10      53656.20      -0.1466632
      156.0000      38762.10      53656.20      -0.0942253
      159.0000      42192.50      53656.20      -0.0644321
      162.0000      42458.00      53656.20      -0.0654245
      165.0000      36322.10      53656.20      -0.1904135
      168.0000      34823.90      53656.20      -0.2055842
      171.0000      40744.90      53656.20      -0.0408525
      174.0000      45586.10      53656.20      0.0527689
      177.0000      43757.90      53656.20      -0.3628102
      180.0000      43162.10      53656.20      -0.1654212
      183.0000      59954.00      53656.20      0.0812336
      186.0000      60977.50      53656.20      0.1010264
      189.0000      55295.60      53656.20      -0.0053213
      192.0000      59010.80      53656.20      0.0206493
      195.0000      52798.20      53656.20      -0.1041026
      198.0000      55610.10      53656.20      -0.0941257
      201.0000      67018.00      53656.20      0.0198799
      204.0000      54276.10      53656.20      -0.1330880
      207.0000      48779.00      53656.20      -0.2322173
      210.0000      54784.90      53656.20      -0.1955301
      213.0000      57451.90      53656.20      -0.0913756
      216.0000      66268.10      53656.20      -0.0603550
      219.0000      60423.20      53656.20      -0.1288868
      222.0000      68965.50      53656.20      0.0251361
      225.0000      68965.50      53656.20      0.0116658
      228.0000      68965.50      53656.20      -0.0093408
      231.0000      72208.60      53656.20      0.0311583
      234.0000      68456.00      53656.20      -0.0135278
      237.0000      75278.10      53656.20      0.0856202
      240.0000      79456.30      53656.20      -0.0059090
      243.0000      66613.00      53656.20      -0.0316920
      246.0000      77487.80      53656.20      0.0917376
      249.0000      82736.50      53656.20      0.0652985
      252.0000      81268.40      53656.20      0.0380745
      255.0000      78016.20      53656.20      0.0860095
      258.0000      78512.10      53656.20      0.0487188
      261.0000      86790.30      53656.20      0.0838371
      264.0000      81449.00      53656.20      -0.0106105
      267.0000      86342.90      53656.20      0.1127421
      270.0000      87477.80      53656.20      0.2317691
      273.0000      93160.90      53656.20      0.2963279
      276.0000      94559.20      53656.20      0.3170804
      279.0000      98745.90      53656.20      0.3538651
      282.0000      91107.40      53656.20      0.2273540
      285.0000      88804.80      53656.20      0.2185467
      288.0000      83026.40      53656.20      0.1025947
      291.0000      76278.90      53656.20      0.0536402
      294.0000      70716.60      53656.20      0.0024013
      297.0000      69040.60      53656.20      -0.0496687
      300.0000      71076.30      53656.20      0.0038304
      303.0000      65032.00      53656.20      -0.0803651
      306.0000      66221.80      53656.20      -0.0798038
      309.0000      55598.00      53656.20      -0.1564671
      312.0000      56332.90      53656.20      -0.1256031
      315.0000      61068.70      53656.20      -0.0677875
      318.0000      63022.30      53656.20      -0.0281212
      321.0000      64120.80      53656.20      0.0351434
      324.0000      60812.70      53656.20      -0.0494225
      327.0000      61641.50      53656.20      0.0014622
      330.0000      59738.70      53656.20      -0.0394650
      333.0000      55237.90      53656.20      -0.0848494
      336.0000      54786.30      53656.20      -0.0443939
      339.0000      51289.90      53656.20      -0.0428489
      342.0000      50484.60      53656.20      -0.0264268
      345.0000      44335.20      53656.20      -0.1244353
      348.0000      44280.30      53656.20      -0.1018056
      351.0000      54156.50      53656.20      0.1368422
      354.0000      55460.40      53656.20      0.2512867
      357.0000      8020.00      53656.20      -0.5852795

       16     121       19.5900     57.0000      1.00000      0.00000
      0.0000      51208.20      45636.10      -0.0953867
      3.0000      51230.20      45636.10      -0.0529901
      6.0000      55796.70      45636.10      0.0021378
      9.0000      55796.70      45636.10      0.0483905
      12.0000      46992.50      45636.10      -0.0232530
      15.0000      45821.90      45636.10      -0.0467597
      18.0000      46152.50      45636.10      -0.0174507
      21.0000      40087.30      45636.10      -0.0961160
      24.0000      38935.00      45636.10      -0.1124800
      27.0000      36347.20      45636.10      -0.1476630
      30.0000      35972.80      45636.10      -0.1129037
      33.0000      37082.30      45636.10      -0.0737105
      36.0000      31137.40      45636.10      -0.1450220
      39.0000      34318.80      45636.10      -0.1038227
      42.0000      36600.70      45636.10      -0.0042959
      45.0000      37101.60      45636.10      0.0234505
      48.0000      41441.70      45636.10      0.1431606
      51.0000      39072.70      45636.10      0.1223560
      54.0000      37499.00      45636.10      0.1126944
      57.0000      35228.60      45636.10      0.0920482
      60.0000      37272.30      45636.10      0.1039080
      63.0000      37574.20      45636.10      0.1382146
      66.0000      29081.50      45636.10      -0.0275798
      69.0000      23895.90      45636.10      -0.1347211
      72.0000      32642.30      45636.10      0.0584827
      75.0000      33727.60      45636.10      0.1143752
      78.0000      33860.60      45636.10      0.1216536
      81.0000      30307.00      45636.10      0.0294992
      84.0000      32664.60      45636.10      0.0790393
      87.0000      36375.90      45636.10      0.1994588
      90.0000      34885.50      45636.10      0.1641837
      93.0000      29994.10      45636.10      0.0094798
      96.0000      35706.70      45636.10      0.1704828
      99.0000      40228.60      45636.10      0.2766855
      102.0000      34047.50      45636.10      0.1207435
      105.0000      29329.70      45636.10      -0.0051523
      108.0000      35039.30      45636.10      0.1086293
      111.0000      35618.70      45636.10      0.1426463
      114.0000      26565.20      45636.10      -0.1187242
      117.0000      33361.40      45636.10      -0.0072420
      120.0000      33927.40      45636.10      0.0115885
      123.0000      35602.90      45636.10      0.0431688
      126.0000      27086.10      45636.10      -0.1380476
      129.0000      32433.60      45636.10      -0.0417288
      132.0000      38161.80      45636.10      0.0541189
      135.0000      37835.10      45636.10      0.0252792
      138.0000      38736.30      45636.10      0.0675913
      141.0000      39371.30      45636.10      0.0746657
      144.0000      37054.10      45636.10      0.0657913
      147.0000      37816.70      45636.10      0.0059824
      150.0000      33584.40      45636.10      -0.1119433
      153.0000      31756.80      45636.10      -0.1486917
      156.0000      31548.40      45636.10      -0.1705232
      159.0000      35066.20      45636.10      -0.0938859
      162.0000      32167.20      45636.10      -0.1555733
      165.0000      36066.00      45636.10      -0.0958658
      168.0000      36276.50      45636.10      -0.0824261
      171.0000      35376.20      45636.10      -0.0708949
      174.0000      37872.20      45636.10      -0.0414799
      177.0000      40411.70      45636.10      0.0392370
      180.0000      37972.90      45636.10      -0.1148335
      183.0000      41430.40      45636.10      -0.0607907
      186.0000      38177.30      45636.10      -0.0819317
      189.0000      41875.00      45636.10      -0.0241848
      192.0000      46480.20      45636.10      -0.0115269
      195.0000      42972.10      45636.10      -0.0703203
      198.0000      44057.20      45636.10      -0.0517438
      201.0000      43680.00      45636.10      -0.0993263
      204.0000      41644.30      45636.10      -0.1358239
      207.0000      40446.20      45636.10      -0.1711481
      210.0000      44812.10      45636.10      -0.1145207
      213.0000      45877.80      45636.10      -0.0913715
      216.0000      49319.00      45636.10      -0.0947345
      219.0000      44712.60      45636.10      -0.1289399
      222.0000      52208.10      45636.10      -0.0125839
      225.0000      53169.00      45636.10      0.0038961
      228.0000      57023.80      45636.10      0.0915458
      231.0000      59331.80      45636.10      0.0986480
      234.0000      61228.30      45636.10      0.1067857
      237.0000      64101.60      45636.10      0.1191923
      240.0000      56961.50      45636.10      0.0513251
      243.0000      60393.10      45636.10      0.0949208
      246.0000      62288.50      45636.10      0.0314847
      249.0000      62625.40      45636.10      -0.0192394
      252.0000      62012.50      45636.10      0.0603767
      255.0000      67177.30      45636.10      0.1298332
      258.0000      67423.90      45636.10      0.1318582
      261.0000      64811.90      45636.10      0.0624029
      264.0000      63909.80      45636.10      0.0744251
      267.0000      70724.80      45636.10      0.1888712
      270.0000      70614.60      45636.10      0.1693832
      273.0000      62626.50      45636.10      0.0248761
      276.0000      69088.20      45636.10      0.1555385
      279.0000      70532.80      45636.10      0.2165072
      282.0000      68176.80      45636.10      0.1230020
      285.0000      65146.20      45636.10      0.0378427
      288.0000      63557.00      45636.10      0.0766491
      291.0000      68781.20      45636.10      0.1395697
      294.0000      57782.40      45636.10      -0.0779203
      297.0000      52067.00      45636.10      -0.0759730
      300.0000      54673.50      45636.10      -0.0421482
      303.0000      55347.30      45636.10      -0.0192188
      306.0000      56064.60      45636.10      -0.0937098
      309.0000      54592.50      45636.10      -0.0593405
      312.0000      52176.30      45636.10      -0.0335377
      315.0000      49679.60      45636.10      -0.0659331
      318.0000      55724.50      45636.10      0.0145588
      321.0000      56285.10      45636.10      0.0287012
      324.0000      64011.60      45636.10      0.1048369
      327.0000      52133.20      45636.10      -0.0298661
      330.0000      46466.40      45636.10      -0.1327534
      333.0000      46845.60      45636.10      -0.1386744
      336.0000      44592.40      45636.10      -0.1635029
      339.0000      47728.10      45636.10      -0.0869763
      342.0000      46521.50      45636.10      -0.1179600
      345.0000      45912.40      45636.10      -0.0858059
      348.0000      47883.00      45636.10      -0.0455100
      351.0000      52056.30      45636.10      0.0215535
      354.0000      50368.50      45636.10      0.0327177
      357.0000      55891.30      45636.10      0.1555539

       17     121       19.5900     60.0000      1.00000      0.00000
      0.0000      45058.20      42405.20      -0.1448532
      3.0000      43840.90      42405.20      -0.1673827
      6.0000      42229.30      42405.20      -0.1426748
      9.0000      36962.70      42405.20      -0.1653181
      12.0000      35003.70      42405.20      -0.1546397
      15.0000      36816.10      42405.20      -0.1313957
      18.0000      40651.20      42405.20      -0.0605987
      21.0000      39853.80      42405.20      0.0595648
      24.0000      35702.40      42405.20      -0.1183559
      27.0000      39545.30      42405.20      0.0138086
      30.0000      33728.70      42405.20      -0.0915332
      33.0000      31966.80      42405.20      -0.0341336
      36.0000      29975.30      42405.20      -0.0918498
      39.0000      29207.70      42405.20      -0.0934127
      42.0000      36311.50      42405.20      0.1199956
      45.0000      33541.80      42405.20      0.0653939
      48.0000      38420.40      42405.20      0.2070096
      51.0000      37746.50      42405.20      0.2057339
      54.0000      35607.50      42405.20      0.2210006
      57.0000      36005.60      42405.20      0.2459097
      60.0000      36992.00      42405.20      0.2906955
      63.0000      33055.40      42405.20      0.1303608
      66.0000      28508.30      42405.20      0.0490954
      69.0000      28560.80      42405.20      0.0863511
      72.0000      31247.50      42405.20      0.1519277
      75.0000      24682.20      42405.20      -0.0034739
      78.0000      24682.20      42405.20      0.0068589
      81.0000      30476.10      42405.20      0.1763953
      84.0000      33648.20      42405.20      0.2597325
      87.0000      24995.80      42405.20      0.0186292
      90.0000      26492.60      42405.20      0.0229781
      93.0000      32433.60      42405.20      0.2146067
      96.0000      31596.10      42405.20      0.1956355
      99.0000      28438.20      42405.20      0.1041306
      102.0000      26846.10      42405.20      0.0266477
      105.0000      35086.90      42405.20      0.2255206
      108.0000      32859.30      42405.20      0.1695963
      111.0000      35740.80      42405.20      0.2134957
      114.0000      25847.10      42405.20      -0.0310771
      117.0000      25564.60      42405.20      -0.0889772
      120.0000      30904.40      42405.20      0.0278608
      123.0000      32487.50      42405.20      0.0388687
      126.0000      26922.50      42405.20      -0.0822189
      129.0000      27322.70      42405.20      -0.1088981
      132.0000      27365.30      42405.20      -0.1093377
      135.0000      36109.10      42405.20      0.0713975
      138.0000      33681.80      42405.20      -0.0125329
      141.0000      36339.30      42405.20      0.0594858
      144.0000      34083.80      42405.20      0.0086525
      147.0000      32483.40      42405.20      -0.0376394
      150.0000      38811.50      42405.20      0.0576339
      153.0000      21091.40      42405.20      -0.3150389
      156.0000      22791.60      42405.20      -0.2969094
      159.0000      32713.20      42405.20      -0.1396454
      162.0000      32713.20      42405.20      -0.1171739
      165.0000      33093.90      42405.20      -0.1012225
      168.0000      32803.90      42405.20      -0.1155111
      171.0000      33355.90      42405.20      -0.1076049
      174.0000      36020.00      42405.20      -0.0267412
      177.0000      35559.70      42405.20      -0.0589125
      180.0000      31990.60      42405.20      -0.1965265
      183.0000      28631.20      42405.20      -0.2562701
      186.0000      32550.00      42405.20      -0.2027949
      189.0000      37944.00      42405.20      -0.1547431
      192.0000      41549.40      42405.20      -0.1145023
      195.0000      38346.20      42405.20      -0.1493180
      198.0000      36588.20      42405.20      -0.1439784
      201.0000      53647.30      42405.20      0.0987424
      204.0000      35245.80      42405.20      -0.1983888
      207.0000      41683.30      42405.20      -0.0720782
      210.0000      39727.00      42405.20      -0.1484681
      213.0000      51770.70      42405.20      0.0013052
      216.0000      46722.20      42405.20      -0.0860335
      219.0000      46864.80      42405.20      -0.0914823
      222.0000      54398.40      42405.20      0.0789803
      225.0000      52895.70      42405.20      0.0319387
      228.0000      55585.40      42405.20      0.1185780
      231.0000      55344.70      42405.20      0.1097176
      234.0000      64225.80      42405.20      0.1990834
      237.0000      64767.30      42405.20      0.2099673
      240.0000      66394.70      42405.20      0.2409033
      243.0000      53647.50      42405.20      0.0388266
      246.0000      58231.00      42405.20      0.0411561
      249.0000      63691.50      42405.20      0.1063137
      252.0000      62252.90      42405.20      0.1192352
      255.0000      64394.60      42405.20      0.0641664
      258.0000      66037.20      42405.20      0.0812332
      261.0000      69222.20      42405.20      0.1864819
      264.0000      69341.10      42405.20      0.2237461
      267.0000      67031.80      42405.20      0.0891359
      270.0000      61050.70      42405.20      0.0347201
      273.0000      68512.20      42405.20      0.1910371
      276.0000      69965.30      42405.20      0.1951826
      279.0000      69146.00      42405.20      0.1454380
      282.0000      63427.00      42405.20      0.0576358
      285.0000      62926.70      42405.20      0.1459672
      288.0000      64530.10      42405.20      0.1364736
      291.0000      61200.10      42405.20      0.1280250
      294.0000      62322.40      42405.20      0.0280193
      297.0000      54330.40      42405.20      -0.0703592
      300.0000      54026.50      42405.20      -0.0159003
      303.0000      51100.80      42405.20      -0.0347106
      306.0000      53937.30      42405.20      -0.0592483
      309.0000      49002.30      42405.20      -0.1141767
      312.0000      50116.40      42405.20      -0.0981718
      315.0000      49957.60      42405.20      -0.0100836
      318.0000      46233.80      42405.20      -0.0793747
      321.0000      50568.50      42405.20      0.0052651
      324.0000      51308.60      42405.20      -0.0017845
      327.0000      50230.40      42405.20      -0.0246201
      330.0000      46628.10      42405.20      -0.0085444
      333.0000      43036.90      42405.20      -0.2090542
      336.0000      41084.40      42405.20      -0.2110641
      339.0000      37343.90      42405.20      -0.1692963
      342.0000      41143.10      42405.20      -0.1008208
      345.0000      42696.80      42405.20      -0.0585114
      348.0000      41506.40      42405.20      -0.0617862
      351.0000      41146.10      42405.20      -0.0424897
      354.0000      45219.90      42405.20      0.0742100
      357.0000      41618.70      42405.20      0.0363842

       18     121       19.5900     63.0000      1.00000      0.00000
      0.0000      35477.00      37993.30      -0.2299116
      3.0000      34446.90      37993.30      -0.2242810
      6.0000      38622.90      37993.30      -0.1371954
      9.0000      34523.10      37993.30      -0.1953803
      12.0000      32067.40      37993.30      -0.1986663
      15.0000      32141.20      37993.30      -0.2081833
      18.0000      36691.20      37993.30      -0.0662938
      21.0000      33375.60      37993.30      -0.0911934
      24.0000      34436.50      37993.30      -0.0315165
      27.0000      34595.70      37993.30      -0.0191672
      30.0000      35371.10      37993.30      0.0457431
      33.0000      36581.30      37993.30      0.0715002
      36.0000      30227.10      37993.30      -0.0249402
      39.0000      28906.20      37993.30      0.0071747
      42.0000      28947.10      37993.30      -0.0463736
      45.0000      31843.90      37993.30      0.0973909
      48.0000      33030.90      37993.30      0.1309003
      51.0000      55708.10      37993.30      0.7602779
      54.0000      36093.40      37993.30      0.2788038
      57.0000      30938.90      37993.30      0.2224932
      60.0000      26708.60      37993.30      0.0604268
      63.0000      26612.70      37993.30      0.0901683
      66.0000      28695.00      37993.30      0.1493827
      69.0000      28711.30      37993.30      0.1570852
      72.0000      31332.60      37993.30      0.2386907
      75.0000      24809.10      37993.30      0.0895782
      78.0000      24622.50      37993.30      0.0912568
      81.0000      23683.80      37993.30      0.0511773
      84.0000      28766.20      37993.30      0.2156292
      87.0000      23915.50      37993.30      0.0803645
      90.0000      22094.30      37993.30      0.0006832
      93.0000      20967.20      37993.30      -0.0134908
      96.0000      26486.60      37993.30      0.1400904
      99.0000      28922.20      37993.30      0.2117706
      102.0000      22418.10      37993.30      0.0287157
      105.0000      21346.30      37993.30      -0.0329023
      108.0000      18916.90      37993.30      -0.1523365
      111.0000      21753.80      37993.30      -0.0369451
      114.0000      27270.20      37993.30      0.0863297
      117.0000      25531.90      37993.30      0.0426439
      120.0000      28533.20      37993.30      0.0998326
      123.0000      28247.70      37993.30      0.0608302
      126.0000      27387.90      37993.30      0.0328010
      129.0000      25861.40      37993.30      -0.0425502
      132.0000      21959.60      37993.30      -0.1409174
      135.0000      28067.80      37993.30      -0.0146505
      138.0000      30561.00      37993.30      0.2168856
      141.0000      30872.40      37993.30      0.0461507
      144.0000      29556.70      37993.30      0.0119785
      147.0000      27143.40      37993.30      -0.0839038
      150.0000      28944.50      37993.30      -0.0693334
      153.0000      23858.50      37993.30      -0.2004912
      156.0000      27347.10      37993.30      -0.1190663
      159.0000      29376.30      37993.30      -0.0821907
      162.0000      32849.30      37993.30      0.0155838
      165.0000      30763.20      37993.30      -0.0623239
      168.0000      27465.90      37993.30      -0.1694241
      171.0000      29156.10      37993.30      -0.0951652
      174.0000      27833.30      37993.30      -0.1695162
      177.0000      30444.50      37993.30      -0.1397560
      180.0000      28211.10      37993.30      -0.2277273
      183.0000      28866.10      37993.30      -0.2232181
      186.0000      29394.40      37993.30      -0.1829525
      189.0000      28257.20      37993.30      -0.2331048
      192.0000      30915.10      37993.30      -0.2049266
      195.0000      27505.90      37993.30      -0.2625571
      198.0000      32687.90      37993.30      -0.1342942
      201.0000      35092.10      37993.30      -0.1213902
      204.0000      37806.30      37993.30      -0.0661164
      207.0000      36484.50      37993.30      -0.0846022
      210.0000      40438.90      37993.30      -0.0121405
      213.0000      37602.40      37993.30      -0.0424054
      216.0000      41222.40      37993.30      -0.0495384
      219.0000      47832.20      37993.30      0.0376215
      222.0000      37853.30      37993.30      -0.1123920
      225.0000      46226.00      37993.30      0.0460608
      228.0000      44386.10      37993.30      0.0338737
      231.0000      48742.70      37993.30      0.3684412
      234.0000      49707.00      37993.30      0.1507084
      237.0000      59795.70      37993.30      0.2312620
      240.0000      50847.30      37993.30      0.0510442
      243.0000      54452.00      37993.30      0.0989476
      246.0000      53255.10      37993.30      0.1081232
      249.0000      53165.00      37993.30      0.1059875
      252.0000      53038.10      37993.30      0.1380034
      255.0000      58719.10      37993.30      0.1252950
      258.0000      59411.60      37993.30      0.1293894
      261.0000      57128.60      37993.30      0.0833906
      264.0000      59282.70      37993.30      0.1787538
      267.0000      60784.70      37993.30      0.1290643
      270.0000      56831.40      37993.30      0.0490597
      273.0000      60412.30      37993.30      0.0775519
      276.0000      59398.50      37993.30      0.1366439
      279.0000      60225.90      37993.30      0.1772496
      282.0000      62347.20      37993.30      0.1138315
      285.0000      58171.90      37993.30      0.0425338
      288.0000      50842.90      37993.30      -0.0873434
      291.0000      57568.30      37993.30      0.0357807
      294.0000      53537.80      37993.30      0.0526884
      297.0000      55734.40      37993.30      0.0569573
      300.0000      53125.50      37993.30      0.0587493
      303.0000      49643.20      37993.30      0.0072781
      306.0000      50421.10      37993.30      0.0056427
      309.0000      46224.90      37993.30      -0.0696807
      312.0000      47864.00      37993.30      -0.0936692
      315.0000      44760.00      37993.30      -0.0638740
      318.0000      72980.50      37993.30      0.3545552
      321.0000      46664.70      37993.30      -0.0039945
      324.0000      47741.10      37993.30      -0.0010380
      327.0000      43062.10      37993.30      -0.0904101
      330.0000      40256.40      37993.30      -0.1080234
      333.0000      38858.00      37993.30      -0.1767667
      336.0000      40316.50      37993.30      -0.1129411
      339.0000      40170.20      37993.30      -0.0874461
      342.0000      44304.50      37993.30      0.0205652
      345.0000      40345.50      37993.30      -0.0519067
      348.0000      35607.90      37993.30      -0.1492046
      351.0000      41021.00      37993.30      -0.0275467
      354.0000      35118.20      37993.30      -0.1259047
      357.0000      32708.90      37993.30      -0.1291938

       19     121       19.5900     66.0000      1.00000      0.00000
      0.0000      27194.40      31927.80      -0.2998447
      3.0000      31251.70      31927.80      -0.1945567
      6.0000      35383.10      31927.80      -0.0881635
      9.0000      35830.70      31927.80      -0.0421911
      12.0000      27582.10      31927.80      -0.1867766
      15.0000      24397.10      31927.80      -0.2613868
      18.0000      27357.10      31927.80      -0.1613808
      21.0000      27902.40      31927.80      -0.0939134
      24.0000      30901.60      31927.80      0.0050345
      27.0000      32719.70      31927.80      0.0361561
      30.0000      33691.00      31927.80      0.1028719
      33.0000      34185.90      31927.80      0.1694201
      36.0000      32907.10      31927.80      0.1491330
      39.0000      25866.20      31927.80      -0.0177646
      42.0000      24061.60      31927.80      -0.0808840
      45.0000      26768.70      31927.80      0.0571438
      48.0000      26499.20      31927.80      0.0801695
      51.0000      27387.30      31927.80      0.2379666
      54.0000      27590.40      31927.80      0.1749667
      57.0000      27929.00      31927.80      0.1644997
      60.0000      20177.70      31927.80      -0.0493228
      63.0000      23748.10      31927.80      0.0528514
      66.0000      28774.70      31927.80      0.2776330
      69.0000      26095.60      31927.80      0.2501130
      72.0000      27954.10      31927.80      0.3293507
      75.0000      23007.20      31927.80      0.1385603
      78.0000      19832.40      31927.80      0.0357652
      81.0000      23866.20      31927.80      0.1897355
      84.0000      17313.20      31927.80      -0.0648643
      87.0000      20001.70      31927.80      0.0403003
      90.0000      17226.50      31927.80      -0.0660478
      93.0000      20830.90      31927.80      0.0714872
      96.0000      25210.90      31927.80      0.2450882
      99.0000      25986.50      31927.80      0.2254420
      102.0000      21611.50      31927.80      0.0679798
      105.0000      26946.90      31927.80      0.2044500
      108.0000      15987.40      31927.80      -0.1612415
      111.0000      20556.10      31927.80      -0.0110847
      114.0000      21844.00      31927.80      0.0505228
      117.0000      21627.70      31927.80      0.0428921
      120.0000      27035.30      31927.80      0.1922629
      123.0000      24417.80      31927.80      0.1065396
      126.0000      27808.80      31927.80      0.1988353
      129.0000      23485.30      31927.80      0.0442182
      132.0000      19824.50      31927.80      -0.1322703
      135.0000      18593.30      31927.80      -0.1805951
      138.0000      20469.80      31927.80      -0.0936480
      141.0000      24959.50      31927.80      -0.0130571
      144.0000      24198.40      31927.80      -0.0108268
      147.0000      22399.70      31927.80      -0.0964642
      150.0000      22268.50      31927.80      -0.1232107
      153.0000      22001.00      31927.80      -0.1066778
      156.0000      22597.90      31927.80      -0.1485927
      159.0000      28424.00      31927.80      -0.0052356
      162.0000      29236.80      31927.80      0.0882414
      165.0000      26790.30      31927.80      -0.0101848
      168.0000      23024.50      31927.80      -0.0853766
      171.0000      23358.60      31927.80      -0.1379930
      174.0000      20676.40      31927.80      -0.2518982
      177.0000      19950.10      31927.80      -0.2685840
      180.0000      21802.40      31927.80      -0.2904472
      183.0000      23602.20      31927.80      -0.2171575
      186.0000      24839.50      31927.80      -0.1538355
      189.0000      26598.90      31927.80      -0.1101378
      192.0000      26653.00      31927.80      -0.1834345
      195.0000      24166.10      31927.80      -0.2655047
      198.0000      26533.80      31927.80      -0.1876099
      201.0000      30754.50      31927.80      -0.0964831
      204.0000      32236.50      31927.80      -0.0350849
      207.0000      28801.40      31927.80      -0.0806280
      210.0000      31288.30      31927.80      -0.0186269
      213.0000      35020.60      31927.80      0.0610344
      216.0000      34041.70      31927.80      0.0302649
      219.0000      34150.80      31927.80      -0.0518141
      222.0000      30735.50      31927.80      -0.1360346
      225.0000      36495.50      31927.80      0.0037132
      228.0000      38433.70      31927.80      0.0353635
      231.0000      52929.80      31927.80      0.3022352
      234.0000      42717.60      31927.80      0.1259244
      237.0000      38443.50      31927.80      0.0573949
      240.0000      40522.50      31927.80      -0.0186509
      243.0000      38076.00      31927.80      -0.0088374
      246.0000      45033.90      31927.80      0.1820886
      249.0000      51682.30      31927.80      0.2512192
      252.0000      53143.70      31927.80      0.3016581
      255.0000      48985.80      31927.80      0.1552982
      258.0000      49066.60      31927.80      0.1048089
      261.0000      51154.70      31927.80      0.1988309
      264.0000      46696.10      31927.80      0.0215407
      267.0000      48552.20      31927.80      0.0907792
      270.0000      47092.30      31927.80      0.0209793
      273.0000      49329.00      31927.80      0.1105242
      276.0000      53084.30      31927.80      0.2358910
      279.0000      47371.50      31927.80      0.1546216
      282.0000      46697.00      31927.80      0.0728030
      285.0000      41650.60      31927.80      0.0730461
      288.0000      42338.70      31927.80      -0.0872418
      291.0000      42983.20      31927.80      -0.0092652
      294.0000      46572.40      31927.80      0.0648840
      297.0000      47470.40      31927.80      0.0741596
      300.0000      45462.60      31927.80      0.1201963
      303.0000      46298.60      31927.80      0.0936771
      306.0000      45842.70      31927.80      0.1337503
      309.0000      44157.30      31927.80      0.0445891
      312.0000      36417.80      31927.80      -0.1320112
      315.0000      35775.70      31927.80      -0.1586529
      318.0000      40863.20      31927.80      -0.0475610
      321.0000      35632.30      31927.80      -0.0735689
      324.0000      39769.50      31927.80      -0.0115671
      327.0000      36189.30      31927.80      -0.0924764
      330.0000      34145.20      31927.80      -0.1256527
      333.0000      37793.70      31927.80      -0.0594016
      336.0000      31514.80      31927.80      -0.1585689
      339.0000      31514.80      31927.80      -0.0835325
      342.0000      40773.90      31927.80      0.1065382
      345.0000      37052.40      31927.80      0.0188027
      348.0000      39179.40      31927.80      0.0314479
      351.0000      32734.20      31927.80      -0.0788409
      354.0000      27485.50      31927.80      -0.2019619
      357.0000      27453.70      31927.80      -0.1952027

       20     121       19.5900     69.0000      1.00000      0.00000
      0.0000      29896.80      26239.50      -0.1393712
      3.0000      22749.50      26239.50      -0.2220661
      6.0000      30240.10      26239.50      -0.0730743
      9.0000      28803.70      26239.50      -0.0594634
      12.0000      25478.80      26239.50      -0.1519614
      15.0000      19619.50      26239.50      -0.2611127
      18.0000      22911.30      26239.50      -0.1546619
      21.0000      23650.30      26239.50      -0.1035126
      24.0000      22891.00      26239.50      -0.1117927
      27.0000      27850.40      26239.50      0.0529216
      30.0000      28720.00      26239.50      0.1219949
      33.0000      31398.00      26239.50      0.2653001
      36.0000      25394.60      26239.50      0.1138929
      39.0000      19822.50      26239.50      -0.0244539
      42.0000      18306.30      26239.50      -0.1156152
      45.0000      17689.90      26239.50      -0.0867307
      48.0000      25522.40      26239.50      0.1510208
      51.0000      21592.90      26239.50      0.0395984
      54.0000      18649.80      26239.50      -0.0360685
      57.0000      20310.00      26239.50      0.0366447
      60.0000      16776.30      26239.50      -0.0693666
      63.0000      18077.40      26239.50      -0.0223934
      66.0000      25900.90      26239.50      0.3155556
      69.0000      26501.00      26239.50      0.4031651
      72.0000      25067.70      26239.50      0.3874858
      75.0000      24107.40      26239.50      0.3592742
      78.0000      16835.20      26239.50      0.0510410
      81.0000      16292.60      26239.50      0.0244031
      84.0000      11374.00      26239.50      -0.1709453
      87.0000      15926.50      26239.50      0.0191541
      90.0000      16444.30      26239.50      0.0332730
      93.0000      18090.60      26239.50      0.0874654
      96.0000      19860.70      26239.50      0.1935250
      99.0000      22238.10      26239.50      0.2839161
      102.0000      20194.10      26239.50      0.1926139
      105.0000      19453.30      26239.50      0.1161085
      108.0000      13752.70      26239.50      -0.1283258
      111.0000      15086.00      26239.50      -0.0699420
      114.0000      19647.80      26239.50      0.1182525
      117.0000      20899.00      26239.50      0.1386318
      120.0000      23071.90      26239.50      0.2279081
      123.0000      30966.10      26239.50      0.5470436
      126.0000      23493.20      26239.50      0.2330145
      129.0000      18899.70      26239.50      0.0280058
      132.0000      16093.30      26239.50      -0.1321102
      135.0000      17019.70      26239.50      -0.1066130
      138.0000      16091.00      26239.50      -0.1549150
      141.0000      16385.90      26239.50      -0.1506884
      144.0000      17258.80      26239.50      -0.1083279
      147.0000      13623.70      26239.50      -0.2633212
      150.0000      11881.10      26239.50      -0.3470450
      153.0000      18164.50      26239.50      -0.1241977
      156.0000      24375.30      26239.50      0.0701582
      159.0000      24375.30      26239.50      0.1473617
      162.0000      21257.90      26239.50      0.0587125
      165.0000      21537.30      26239.50      -0.0164680
      168.0000      18223.00      26239.50      -0.1329230
      171.0000      17282.30      26239.50      -0.2073210
      174.0000      16279.00      26239.50      -0.2517768
      177.0000      16314.70      26239.50      -0.2627182
      180.0000      18029.90      26239.50      -0.2033209
      183.0000      22248.00      26239.50      -0.1564833
      186.0000      19701.60      26239.50      -0.1501655
      189.0000      21907.20      26239.50      -0.1043944
      192.0000      19332.90      26239.50      -0.2079001
      195.0000      20956.60      26239.50      -0.2316494
      198.0000      21751.30      26239.50      -0.1732151
      201.0000      23135.00      26239.50      -0.1289708
      204.0000      22812.30      26239.50      -0.1459579
      207.0000      23570.50      26239.50      -0.0618575
      210.0000      25678.00      26239.50      0.0033509
      213.0000      29517.10      26239.50      0.1342344
      216.0000      30559.10      26239.50      0.0758825
      219.0000      32541.90      26239.50      0.0404133
      222.0000      27398.80      26239.50      -0.1013013
      225.0000      31051.00      26239.50      -0.0295739
      228.0000      27084.40      26239.50      0.0044660
      231.0000      28011.20      26239.50      -0.0365443
      234.0000      29659.80      26239.50      -0.0488116
      237.0000      29864.40      26239.50      -0.0171954
      240.0000      31350.50      26239.50      -0.0465582
      243.0000      30350.40      26239.50      -0.0465208
      246.0000      33485.60      26239.50      0.1563120
      249.0000      39092.30      26239.50      0.2829562
      252.0000      42407.90      26239.50      0.3237905
      255.0000      42706.80      26239.50      0.3101889
      258.0000      40340.20      26239.50      0.1252543
      261.0000      39584.80      26239.50      0.0967281
      264.0000      39921.30      26239.50      0.0078510
      267.0000      40444.00      26239.50      0.1003059
      270.0000      39715.40      26239.50      0.0923590
      273.0000      38393.10      26239.50      0.0942660
      276.0000      42349.50      26239.50      0.2017227
      279.0000      41968.50      26239.50      0.2355421
      282.0000      41528.10      26239.50      0.1849395
      285.0000      36868.40      26239.50      0.0773539
      288.0000      35735.00      26239.50      -0.0535807
      291.0000      36809.00      26239.50      -0.0106113
      294.0000      38278.70      26239.50      0.0987501
      297.0000      35894.20      26239.50      0.0723600
      300.0000      37391.10      26239.50      0.1372883
      303.0000      40363.70      26239.50      0.3315173
      306.0000      38354.10      26239.50      0.1575530
      309.0000      35764.30      26239.50      0.0253209
      312.0000      30400.50      26239.50      -0.1289181
      315.0000      30281.00      26239.50      -0.1162761
      318.0000      29439.10      26239.50      -0.1486090
      321.0000      29513.20      26239.50      -0.1419302
      324.0000      31540.60      26239.50      -0.0860163
      327.0000      28942.30      26239.50      -0.1944581
      330.0000      26768.50      26239.50      -0.2633579
      333.0000      28816.00      26239.50      -0.1214063
      336.0000      28816.00      26239.50      -0.0252139
      339.0000      37524.30      26239.50      0.1648551
      342.0000      39107.60      26239.50      0.1614070
      345.0000      31393.80      26239.50      0.0036699
      348.0000      30311.40      26239.50      -0.0587956
      351.0000      26222.90      26239.50      -0.1561940
      354.0000      25045.80      26239.50      -0.1876681
      357.0000      24090.30      26239.50      -0.1992740

