      20    2420    0     datakind beginning-row linenumbers
MSCD Version 1.00 Yufeng Chen and Michel A Van Hove
Lawrence Berkeley National Laboratory (LBNL), Berkeley, CA 94720
Copyright (c) Van Hove Group 1997. All rights reserved
--------------------------------------------------------------
angle-resolved photoemission extended fine structure (ARPEFS)
experimental data for Fe 2p3/2 from Fe on STO(100)  excited with hv=1810eV

provided by Pancotti et al. (LNLS in 9, June 2010)
   initial angular momentum (l) = 1
   photon polarization angle (polar, azimuth) = (  30.0,   0.0 ) (deg)
   sample temperature = 300 K

   photoemission angular scan curves
     (curve point theta phi weightc weighte//k intensity chiexp)
      20     2420       1       20     121     2420
       1     121       19.5900     12.0000      1.00000      0.00000
      0.0000      334470.30      328181.40      -0.0520683
      3.0000      350193.20      328181.40      -0.0316980
      6.0000      353881.90      328181.40      -0.0158121
      9.0000      365807.20      328181.40      -0.0068099
      12.0000      372810.90      328181.40      0.0204564
      15.0000      376167.90      328181.40      0.0197249
      18.0000      387587.80      328181.40      0.0279086
      21.0000      399791.70      328181.40      0.0509534
      24.0000      400128.60      328181.40      0.0679579
      27.0000      390367.00      328181.40      0.0261557
      30.0000      390542.80      328181.40      0.0251647
      33.0000      393478.60      328181.40      0.0282857
      36.0000      380177.60      328181.40      0.0120155
      39.0000      379897.50      328181.40      -0.0105156
      42.0000      380629.70      328181.40      0.0074112
      45.0000      374732.50      328181.40      -0.0107449
      48.0000      382065.70      328181.40      -0.0061691
      51.0000      377844.60      328181.40      -0.0168096
      54.0000      385404.00      328181.40      -0.0052868
      57.0000      392159.70      328181.40      -0.0000722
      60.0000      404446.80      328181.40      0.0049963
      63.0000      413099.50      328181.40      0.0075783
      66.0000      417794.00      328181.40      0.2008008
      69.0000      420069.40      328181.40      0.0463298
      72.0000      426644.90      328181.40      0.0641964
      75.0000      418135.20      328181.40      0.0501134
      78.0000      414175.30      328181.40      0.0637519
      81.0000      405203.40      328181.40      0.0474616
      84.0000      403733.30      328181.40      0.0601000
      87.0000      387875.10      328181.40      0.0407755
      90.0000      388417.30      328181.40      0.0485488
      93.0000      385270.30      328181.40      0.0207354
      96.0000      371523.80      328181.40      0.0108196
      99.0000      359641.20      328181.40      -0.0147429
      102.0000      354231.70      328181.40      -0.0235552
      105.0000      344947.40      328181.40      -0.0392455
      108.0000      342456.60      328181.40      -0.0557228
      111.0000      347604.90      328181.40      -0.0429246
      114.0000      336708.90      328181.40      -0.0521257
      117.0000      343877.00      328181.40      -0.0450707
      120.0000      347718.30      328181.40      -0.0387784
      123.0000      344352.70      328181.40      -0.0547429
      126.0000      339336.20      328181.40      -0.0388382
      129.0000      337075.80      328181.40      -0.0353393
      132.0000      337217.10      328181.40      -0.0336761
      135.0000      340099.40      328181.40      -0.0374046
      138.0000      336547.60      328181.40      -0.0232148
      141.0000      336202.00      328181.40      -0.0228783
      144.0000      324202.50      328181.40      -0.0396636
      147.0000      324202.50      328181.40      -0.0349560
      150.0000      323967.60      328181.40      -0.0251565
      153.0000      325405.20      328181.40      -0.0174269
      156.0000      323449.00      328181.40      -0.0263136
      159.0000      314385.70      328181.40      -0.0338391
      162.0000      307981.50      328181.40      -0.0347897
      165.0000      312630.80      328181.40      -0.0148785
      168.0000      307690.90      328181.40      -0.0069011
      171.0000      307775.00      328181.40      -0.0038453
      174.0000      304180.30      328181.40      -0.0039654
      177.0000      308974.40      328181.40      0.0149291
      180.0000      308111.90      328181.40      -0.0520683
      183.0000      307268.60      328181.40      -0.0316980
      186.0000      313645.30      328181.40      -0.0158120
      189.0000      308846.20      328181.40      -0.0068099
      192.0000      319146.10      328181.40      0.0204564
      195.0000      315221.30      328181.40      0.0197249
      198.0000      310221.00      328181.40      0.0279086
      201.0000      313470.10      328181.40      0.0509534
      204.0000      322221.90      328181.40      0.0679579
      207.0000      303943.40      328181.40      0.0261557
      210.0000      302043.70      328181.40      0.0251646
      213.0000      300394.50      328181.40      0.0282857
      216.0000      299632.90      328181.40      0.0120155
      219.0000      285566.00      328181.40      -0.0105156
      222.0000      293903.10      328181.40      0.0074112
      225.0000      286513.70      328181.40      -0.0107449
      228.0000      282362.00      328181.40      -0.0061691
      231.0000      278048.20      328181.40      -0.0168096
      234.0000      277647.10      328181.40      -0.0052868
      237.0000      274304.50      328181.40      -0.0000722
      240.0000      266942.60      328181.40      0.0049963
      243.0000      260835.00      328181.40      0.0075783
      246.0000      362275.60      328181.40      0.2008008
      249.0000      274428.80      328181.40      0.0463298
      252.0000      278154.30      328181.40      0.0641964
      255.0000      275172.20      328181.40      0.0501133
      258.0000      284108.70      328181.40      0.0637519
      261.0000      280388.30      328181.40      0.0474616
      264.0000      287109.50      328181.40      0.0601001
      267.0000      286850.40      328181.40      0.0407755
      270.0000      289652.80      328181.40      0.0485488
      273.0000      275875.90      328181.40      0.0207354
      276.0000      279582.00      328181.40      0.0108196
      279.0000      273588.60      328181.40      -0.0147429
      282.0000      272110.40      328181.40      -0.0235552
      285.0000      269856.60      328181.40      -0.0392455
      288.0000      262243.90      328181.40      -0.0557228
      291.0000      265046.20      328181.40      -0.0429246
      294.0000      267956.60      328181.40      -0.0521256
      297.0000      266229.60      328181.40      -0.0450707
      300.0000      266672.70      328181.40      -0.0387784
      303.0000      260339.30      328181.40      -0.0547429
      306.0000      273383.20      328181.40      -0.0388382
      309.0000      277462.20      328181.40      -0.0353393
      312.0000      278703.10      328181.40      -0.0336761
      315.0000      274661.30      328181.40      -0.0374046
      318.0000      286498.30      328181.40      -0.0232149
      321.0000      287774.90      328181.40      -0.0228783
      324.0000      289138.30      328181.40      -0.0396636
      327.0000      293053.50      328181.40      -0.0349560
      330.0000      300453.60      328181.40      -0.0251565
      333.0000      305301.00      328181.40      -0.0174269
      336.0000      303161.90      328181.40      -0.0263136
      339.0000      308739.50      328181.40      -0.0338391
      342.0000      316274.60      328181.40      -0.0347897
      345.0000      326676.10      328181.40      -0.0148785
      348.0000      339308.60      328181.40      -0.0069011
      351.0000      343932.30      328181.40      -0.0038453
      354.0000      350531.90      328181.40      -0.0039654
      357.0000      361387.50      328181.40      0.0149291

       2     121       19.5900     15.0000      1.00000      0.00000
      0.0000      339026.10      305164.50      -0.1176364
      3.0000      347304.10      305164.50      -0.0981121
      6.0000      359170.30      305164.50      -0.0825625
      9.0000      369665.00      305164.50      -0.0665566
      12.0000      379753.80      305164.50      -0.0459736
      15.0000      397087.10      305164.50      -0.0261652
      18.0000      415700.90      305164.50      0.0220447
      21.0000      419272.30      305164.50      0.0447568
      24.0000      430872.80      305164.50      0.0545603
      27.0000      435158.00      305164.50      0.0682292
      30.0000      437121.90      305164.50      0.0775891
      33.0000      431458.20      305164.50      0.0770893
      36.0000      428129.10      305164.50      0.0745574
      39.0000      414954.10      305164.50      0.0559399
      42.0000      402415.40      305164.50      0.0157355
      45.0000      396016.00      305164.50      0.0306932
      48.0000      397427.20      305164.50      0.0199247
      51.0000      394502.70      305164.50      0.0165640
      54.0000      395519.60      305164.50      0.0186970
      57.0000      410921.40      305164.50      0.0251615
      60.0000      417868.50      305164.50      0.0219912
      63.0000      422084.30      305164.50      0.0656315
      66.0000      437596.70      305164.50      0.0881249
      69.0000      427501.80      305164.50      0.0756605
      72.0000      436044.00      305164.50      0.0982329
      75.0000      423595.60      305164.50      0.0686691
      78.0000      409303.90      305164.50      0.0621332
      81.0000      392796.70      305164.50      0.0378443
      84.0000      382728.80      305164.50      0.0222414
      87.0000      354284.10      305164.50      -0.0375189
      90.0000      337059.20      305164.50      -0.0461867
      93.0000      332833.20      305164.50      -0.0484615
      96.0000      322955.00      305164.50      -0.0643517
      99.0000      317231.70      305164.50      -0.0993983
      102.0000      322665.60      305164.50      -0.0767980
      105.0000      324374.70      305164.50      -0.0637056
      108.0000      333132.10      305164.50      -0.0781188
      111.0000      337459.10      305164.50      -0.0504328
      114.0000      344312.80      305164.50      -0.0313632
      117.0000      343388.10      305164.50      -0.0461544
      120.0000      344779.40      305164.50      -0.0170418
      123.0000      347184.10      305164.50      -0.0173275
      126.0000      336608.80      305164.50      -0.0043939
      129.0000      336999.80      305164.50      0.0069350
      132.0000      338091.20      305164.50      0.0132155
      135.0000      333643.10      305164.50      0.0217037
      138.0000      325852.90      305164.50      0.0173697
      141.0000      326473.30      305164.50      0.0211146
      144.0000      327155.20      305164.50      0.0274713
      147.0000      320069.10      305164.50      0.0183455
      150.0000      313410.80      305164.50      0.0274769
      153.0000      310526.70      305164.50      0.0201963
      156.0000      305316.90      305164.50      0.0247543
      159.0000      294328.50      305164.50      -0.0132328
      162.0000      299306.50      305164.50      -0.0009039
      165.0000      293664.70      305164.50      -0.0147629
      168.0000      289275.30      305164.50      -0.0147802
      171.0000      273178.60      305164.50      -0.0428856
      174.0000      270746.90      305164.50      -0.0448564
      177.0000      255320.30      305164.50      -0.0648372
      180.0000      251426.10      305164.50      -0.1176364
      183.0000      254708.80      305164.50      -0.0981121
      186.0000      253160.50      305164.50      -0.0825625
      189.0000      252739.50      305164.50      -0.0665566
      192.0000      254951.70      305164.50      -0.0459736
      195.0000      251815.00      305164.50      -0.0261652
      198.0000      262684.70      305164.50      0.0220447
      201.0000      269767.80      305164.50      0.0447568
      204.0000      264870.10      305164.50      0.0545602
      207.0000      266560.40      305164.50      0.0682292
      210.0000      267418.10      305164.50      0.0775891
      213.0000      268001.50      305164.50      0.0770893
      216.0000      266081.80      305164.50      0.0745574
      219.0000      262294.30      305164.50      0.0559399
      222.0000      247751.00      305164.50      0.0157355
      225.0000      256181.20      305164.50      0.0306932
      228.0000      247614.40      305164.50      0.0199247
      231.0000      245229.40      305164.50      0.0165639
      234.0000      243140.90      305164.50      0.0186970
      237.0000      234664.70      305164.50      0.0251615
      240.0000      226762.90      305164.50      0.0219912
      243.0000      241994.80      305164.50      0.0656315
      246.0000      240849.80      305164.50      0.0881249
      249.0000      238745.80      305164.50      0.0756605
      252.0000      241726.20      305164.50      0.0982330
      255.0000      233493.10      305164.50      0.0686692
      258.0000      236863.40      305164.50      0.0621332
      261.0000      233746.00      305164.50      0.0378443
      264.0000      230925.40      305164.50      0.0222414
      267.0000      219467.50      305164.50      -0.0375189
      270.0000      224434.70      305164.50      -0.0461867
      273.0000      224692.20      305164.50      -0.0484614
      276.0000      222437.90      305164.50      -0.0643517
      279.0000      209258.80      305164.50      -0.0993982
      282.0000      215167.20      305164.50      -0.0767980
      285.0000      219219.20      305164.50      -0.0637056
      288.0000      206485.20      305164.50      -0.0781188
      291.0000      215648.50      305164.50      -0.0504327
      294.0000      219387.70      305164.50      -0.0313631
      297.0000      212735.70      305164.50      -0.0461544
      300.0000      224954.70      305164.50      -0.0170418
      303.0000      222982.20      305164.50      -0.0173275
      306.0000      236376.20      305164.50      -0.0043939
      309.0000      241704.10      305164.50      0.0069350
      312.0000      244294.30      305164.50      0.0132156
      315.0000      252234.20      305164.50      0.0217038
      318.0000      256720.90      305164.50      0.0173697
      321.0000      259045.80      305164.50      0.0211146
      324.0000      262794.10      305164.50      0.0274713
      327.0000      265069.70      305164.50      0.0183455
      330.0000      276862.20      305164.50      0.0274769
      333.0000      277172.20      305164.50      0.0201963
      336.0000      286119.20      305164.50      0.0247543
      339.0000      277239.20      305164.50      -0.0132328
      342.0000      281624.20      305164.50      -0.0009039
      345.0000      281350.20      305164.50      -0.0147629
      348.0000      288068.30      305164.50      -0.0147803
      351.0000      290460.40      305164.50      -0.0428855
      354.0000      294687.60      305164.50      -0.0448564
      357.0000      302248.50      305164.50      -0.0648372

       3     121       19.5900     18.0000      1.00000      0.00000
      0.0000      322815.70      320054.80      -0.0720970
      3.0000      321525.30      320054.80      -0.0660772
      6.0000      313783.90      320054.80      -0.0929821
      9.0000      356766.30      320054.80      -0.0342755
      12.0000      370143.70      320054.80      -0.0143906
      15.0000      369802.20      320054.80      -0.0071511
      18.0000      426267.10      320054.80      0.0791377
      21.0000      436855.80      320054.80      0.0893384
      24.0000      412960.60      320054.80      0.0550881
      27.0000      413472.20      320054.80      0.0730775
      30.0000      412043.30      320054.80      0.0715136
      33.0000      440449.60      320054.80      0.1018746
      36.0000      394896.40      320054.80      0.0633785
      39.0000      408632.80      320054.80      0.0632150
      42.0000      417300.10      320054.80      0.0682224
      45.0000      391629.80      320054.80      0.0382442
      48.0000      361444.40      320054.80      -0.0288912
      51.0000      389539.90      320054.80      -0.0040723
      54.0000      386366.20      320054.80      -0.0062187
      57.0000      397435.50      320054.80      -0.0001599
      60.0000      392791.30      320054.80      0.0037225
      63.0000      407783.70      320054.80      0.0022097
      66.0000      435940.80      320054.80      0.0448743
      69.0000      435022.50      320054.80      0.0521640
      72.0000      419809.10      320054.80      0.0251023
      75.0000      387775.10      320054.80      -0.0175604
      78.0000      368674.50      320054.80      -0.0446174
      81.0000      368690.20      320054.80      -0.0660559
      84.0000      354829.30      320054.80      -0.0819622
      87.0000      333409.80      320054.80      -0.1202515
      90.0000      323408.10      320054.80      -0.1374054
      93.0000      336360.90      320054.80      -0.1329320
      96.0000      347662.90      320054.80      -0.1202595
      99.0000      319201.70      320054.80      -0.1453614
      102.0000      324104.30      320054.80      -0.1581325
      105.0000      353288.90      320054.80      -0.1056839
      108.0000      359506.60      320054.80      -0.0907285
      111.0000      385984.40      320054.80      -0.0457658
      114.0000      394904.40      320054.80      -0.0156715
      117.0000      393702.00      320054.80      0.0112202
      120.0000      371143.00      320054.80      -0.0183610
      123.0000      380252.20      320054.80      0.0333395
      126.0000      348671.40      320054.80      0.0078246
      129.0000      382842.40      320054.80      0.0664245
      132.0000      369643.90      320054.80      0.0682417
      135.0000      343424.10      320054.80      0.0324917
      138.0000      367877.80      320054.80      0.0781243
      141.0000      362726.80      320054.80      0.0713865
      144.0000      372920.20      320054.80      0.0986074
      147.0000      354197.90      320054.80      0.0684676
      150.0000      350102.10      320054.80      0.0717568
      153.0000      348871.30      320054.80      0.0779980
      156.0000      359476.30      320054.80      0.1012907
      159.0000      322064.00      320054.80      0.0137079
      162.0000      333134.50      320054.80      0.0441290
      165.0000      324541.90      320054.80      0.0247669
      168.0000      333629.30      320054.80      0.0340802
      171.0000      310987.60      320054.80      -0.0149188
      174.0000      292511.70      320054.80      -0.0597250
      177.0000      288964.70      320054.80      -0.0694553
      180.0000      277457.50      320054.80      -0.0720970
      183.0000      282807.50      320054.80      -0.0660772
      186.0000      273719.00      320054.80      -0.0929821
      189.0000      273587.70      320054.80      -0.0342755
      192.0000      274655.00      320054.80      -0.0143906
      195.0000      278835.10      320054.80      -0.0071511
      198.0000      284650.50      320054.80      0.0791377
      201.0000      282190.50      320054.80      0.0893384
      204.0000      279961.50      320054.80      0.0550881
      207.0000      288368.30      320054.80      0.0730775
      210.0000      287350.40      320054.80      0.0715136
      213.0000      282863.00      320054.80      0.1018746
      216.0000      291754.50      320054.80      0.0633785
      219.0000      281033.30      320054.80      0.0632149
      222.0000      276406.40      320054.80      0.0682224
      225.0000      276032.50      320054.80      0.0382442
      228.0000      259697.80      320054.80      -0.0288912
      231.0000      252881.90      320054.80      -0.0040723
      234.0000      252267.70      320054.80      -0.0062187
      237.0000      246906.30      320054.80      -0.0001599
      240.0000      250190.80      320054.80      0.0037225
      243.0000      238861.00      320054.80      0.0022097
      246.0000      241053.10      320054.80      0.0448743
      249.0000      243779.30      320054.80      0.0521640
      252.0000      238675.40      320054.80      0.0251023
      255.0000      236396.60      320054.80      -0.0175604
      258.0000      233943.20      320054.80      -0.0446174
      261.0000      222745.20      320054.80      -0.0660560
      264.0000      222745.20      320054.80      -0.0819621
      267.0000      216831.00      320054.80      -0.1202515
      270.0000      214221.60      320054.80      -0.1374054
      273.0000      207925.70      320054.80      -0.1329320
      276.0000      206604.50      320054.80      -0.1202595
      279.0000      212142.60      320054.80      -0.1453614
      282.0000      202739.40      320054.80      -0.1581325
      285.0000      209535.80      320054.80      -0.1056839
      288.0000      212859.80      320054.80      -0.0907285
      291.0000      217716.20      320054.80      -0.0457658
      294.0000      226941.90      320054.80      -0.0156715
      297.0000      241728.40      320054.80      0.0112202
      300.0000      242987.40      320054.80      -0.0183610
      303.0000      264159.70      320054.80      0.0333395
      306.0000      275078.10      320054.80      0.0078246
      309.0000      282361.70      320054.80      0.0664245
      312.0000      295163.60      320054.80      0.0682417
      315.0000      298224.10      320054.80      0.0324917
      318.0000      306418.50      320054.80      0.0781243
      321.0000      309364.90      320054.80      0.0713865
      324.0000      319150.70      320054.80      0.0986074
      327.0000      320709.70      320054.80      0.0684676
      330.0000      329605.80      320054.80      0.0717568
      333.0000      338090.80      320054.80      0.0779980
      336.0000      346225.40      320054.80      0.1012907
      339.0000      331097.50      320054.80      0.0137079
      342.0000      343654.00      320054.80      0.0441290
      345.0000      343958.30      320054.80      0.0247669
      348.0000      344568.80      320054.80      0.0340802
      351.0000      340121.60      320054.80      -0.0149188
      354.0000      334006.30      320054.80      -0.0597250
      357.0000      335602.30      320054.80      -0.0694553

       4     121       19.5900     21.0000      1.00000      0.00000
      0.0000      312595.30      323429.50      -0.0467968
      3.0000      334139.70      323429.50      -0.0053082
      6.0000      331443.10      323429.50      -0.0714223
      9.0000      318887.60      323429.50      -0.0941710
      12.0000      327176.00      323429.50      -0.0753676
      15.0000      354536.00      323429.50      -0.0322846
      18.0000      373607.20      323429.50      0.0016393
      21.0000      370857.80      323429.50      -0.0002410
      24.0000      397478.40      323429.50      0.0469338
      27.0000      408290.80      323429.50      0.0488824
      30.0000      381554.90      323429.50      0.0048973
      33.0000      397362.20      323429.50      0.0600746
      36.0000      401626.70      323429.50      0.0356478
      39.0000      362574.60      323429.50      -0.0777178
      42.0000      352477.60      323429.50      -0.0441257
      45.0000      383885.70      323429.50      -0.0391272
      48.0000      368188.30      323429.50      -0.0043279
      51.0000      390419.70      323429.50      -0.0314737
      54.0000      390419.70      323429.50      0.0083459
      57.0000      355489.20      323429.50      -0.0625690
      60.0000      408119.30      323429.50      0.0164248
      63.0000      396516.50      323429.50      0.0158361
      66.0000      418179.20      323429.50      0.0228531
      69.0000      418179.20      323429.50      0.0397376
      72.0000      403229.20      323429.50      0.0531450
      75.0000      378417.50      323429.50      0.0194368
      78.0000      362011.50      323429.50      -0.0228358
      81.0000      343030.40      323429.50      -0.0416271
      84.0000      362515.00      323429.50      -0.0779541
      87.0000      329306.40      323429.50      -0.0592403
      90.0000      347125.60      323429.50      -0.0780767
      93.0000      346853.40      323429.50      -0.0881021
      96.0000      336823.30      323429.50      -0.0912964
      99.0000      355248.30      323429.50      -0.0733253
      102.0000      360102.60      323429.50      -0.0608223
      105.0000      316933.40      323429.50      -0.1357148
      108.0000      367509.00      323429.50      -0.0284848
      111.0000      391463.40      323429.50      0.0366775
      114.0000      365014.40      323429.50      -0.0261222
      117.0000      327905.40      323429.50      -0.0115980
      120.0000      366841.50      323429.50      0.0408717
      123.0000      381952.20      323429.50      0.0916136
      126.0000      376080.10      323429.50      0.0334827
      129.0000      355215.80      323429.50      0.0178031
      132.0000      360312.40      323429.50      0.0248112
      135.0000      354580.20      323429.50      -0.0118401
      138.0000      343935.90      323429.50      0.0049529
      141.0000      363699.60      323429.50      0.0414851
      144.0000      388752.40      323429.50      0.0664450
      147.0000      361577.00      323429.50      0.0675350
      150.0000      384510.10      323429.50      0.0977596
      153.0000      384510.10      323429.50      0.1039308
      156.0000      384510.10      323429.50      0.0783803
      159.0000      372496.90      323429.50      0.0991082
      162.0000      335496.40      323429.50      0.0680128
      165.0000      354999.70      323429.50      0.0775417
      168.0000      348217.40      323429.50      0.0292548
      171.0000      330324.70      323429.50      0.0117286
      174.0000      330324.70      323429.50      -0.0020483
      177.0000      330324.70      323429.50      0.0038647
      180.0000      286762.20      323429.50      -0.0467968
      183.0000      294406.40      323429.50      -0.0053082
      186.0000      259481.90      323429.50      -0.0714223
      189.0000      258761.30      323429.50      -0.0941710
      192.0000      264059.10      323429.50      -0.0753676
      195.0000      267445.20      323429.50      -0.0322846
      198.0000      272419.20      323429.50      0.0016394
      201.0000      274237.00      323429.50      -0.0002411
      204.0000      280547.40      323429.50      0.0469338
      207.0000      273712.60      323429.50      0.0488823
      210.0000      269553.30      323429.50      0.0048973
      213.0000      287950.40      323429.50      0.0600746
      216.0000      271239.20      323429.50      0.0356478
      219.0000      237701.70      323429.50      -0.0777178
      222.0000      262281.40      323429.50      -0.0441257
      225.0000      242416.80      323429.50      -0.0391272
      228.0000      270914.90      323429.50      -0.0043279
      231.0000      240781.70      323429.50      -0.0314737
      234.0000      260803.90      323429.50      0.0083459
      237.0000      246712.30      323429.50      -0.0625690
      240.0000      251602.00      323429.50      0.0164248
      243.0000      258216.10      323429.50      0.0158361
      246.0000      246783.90      323429.50      0.0228531
      249.0000      254675.70      323429.50      0.0397376
      252.0000      270583.30      323429.50      0.0531450
      255.0000      269082.30      323429.50      0.0194368
      258.0000      257864.50      323429.50      -0.0228357
      261.0000      260359.30      323429.50      -0.0416271
      264.0000      228818.30      323429.50      -0.0779541
      267.0000      259979.30      323429.50      -0.0592404
      270.0000      238501.60      323429.50      -0.0780767
      273.0000      233529.20      323429.50      -0.0881021
      276.0000      238711.50      323429.50      -0.0912964
      279.0000      235642.90      323429.50      -0.0733252
      282.0000      239040.80      323429.50      -0.0608223
      285.0000      230392.90      323429.50      -0.1357149
      288.0000      251689.90      323429.50      -0.0284848
      291.0000      269793.70      323429.50      0.0366775
      294.0000      256253.90      323429.50      -0.0261222
      297.0000      292555.30      323429.50      -0.0115980
      300.0000      293647.00      323429.50      0.0408717
      303.0000      311829.20      323429.50      0.0916136
      306.0000      285722.80      323429.50      0.0334827
      309.0000      295267.30      323429.50      0.0178031
      312.0000      297289.60      323429.50      0.0248112
      315.0000      282834.00      323429.50      -0.0118401
      318.0000      304200.10      323429.50      0.0049529
      321.0000      311659.10      323429.50      0.0414851
      324.0000      307165.50      323429.50      0.0664450
      327.0000      335789.40      323429.50      0.0675350
      330.0000      336648.90      323429.50      0.0977596
      333.0000      344024.90      323429.50      0.1039309
      336.0000      330445.60      323429.50      0.0783803
      339.0000      360548.60      323429.50      0.0991082
      342.0000      383059.40      323429.50      0.0680128
      345.0000      373069.50      323429.50      0.0775417
      348.0000      350215.60      323429.50      0.0292548
      351.0000      362722.80      323429.50      0.0117286
      354.0000      356871.30      323429.50      -0.0020483
      357.0000      366114.60      323429.50      0.0038648

       5     121       19.5900     24.0000      1.00000      0.00000
      0.0000      292648.30      286209.50      -0.0120188
      3.0000      325549.90      286209.50      0.0373235
      6.0000      312172.60      286209.50      -0.0713994
      9.0000      334206.90      286209.50      0.0408094
      12.0000      349127.00      286209.50      0.0465776
      15.0000      321537.30      286209.50      -0.0111267
      18.0000      319947.00      286209.50      0.0043809
      21.0000      321570.50      286209.50      -0.0659223
      24.0000      322027.70      286209.50      -0.0158345
      27.0000      322027.70      286209.50      -0.0242315
      30.0000      370192.60      286209.50      0.0400074
      33.0000      373535.80      286209.50      0.0232160
      36.0000      355671.70      286209.50      -0.0035987
      39.0000      365892.00      286209.50      0.0231645
      42.0000      346191.80      286209.50      -0.0295321
      45.0000      350077.20      286209.50      -0.0092733
      48.0000      341498.00      286209.50      -0.0242818
      51.0000      345587.30      286209.50      -0.0493946
      54.0000      351336.40      286209.50      -0.0583167
      57.0000      352940.10      286209.50      -0.0932886
      60.0000      362208.80      286209.50      -0.0119916
      63.0000      340306.10      286209.50      -0.0775283
      66.0000      331645.30      286209.50      -0.0860047
      69.0000      350250.50      286209.50      0.0062549
      72.0000      343364.30      286209.50      -0.0300507
      75.0000      322119.50      286209.50      -0.0281058
      78.0000      317527.90      286209.50      -0.0238507
      81.0000      325359.30      286209.50      -0.0114399
      84.0000      317684.70      286209.50      -0.0382080
      87.0000      302019.30      286209.50      -0.1131809
      90.0000      329036.00      286209.50      -0.0165336
      93.0000      332269.20      286209.50      -0.0708551
      96.0000      312334.70      286209.50      -0.0496734
      99.0000      302836.50      286209.50      -0.1058555
      102.0000      287016.80      286209.50      -0.2979635
      105.0000      310263.20      286209.50      -0.0672597
      108.0000      281012.30      286209.50      -0.0653256
      111.0000      327709.80      286209.50      0.0039275
      114.0000      319484.90      286209.50      -0.0021624
      117.0000      336281.60      286209.50      0.0560052
      120.0000      331811.90      286209.50      0.1024623
      123.0000      335694.00      286209.50      0.1195577
      126.0000      325914.50      286209.50      0.0476657
      129.0000      321592.10      286209.50      0.1126114
      132.0000      327154.30      286209.50      0.1129410
      135.0000      304076.50      286209.50      0.0653290
      138.0000      310548.90      286209.50      0.0254207
      141.0000      315500.90      286209.50      0.0793873
      144.0000      322964.20      286209.50      0.0862091
      147.0000      321650.60      286209.50      0.0666930
      150.0000      313409.00      286209.50      0.0615360
      153.0000      331227.90      286209.50      0.1086690
      156.0000      310971.50      286209.50      0.0818724
      159.0000      318345.60      286209.50      0.0491724
      162.0000      322601.80      286209.50      0.0759111
      165.0000      313468.80      286209.50      0.0844259
      168.0000      300819.60      286209.50      0.0468369
      171.0000      271939.40      286209.50      -0.0430488
      174.0000      287590.30      286209.50      0.0126312
      177.0000      276532.80      286209.50      -0.0659344
      180.0000      268474.80      286209.50      -0.0120188
      183.0000      267343.00      286209.50      0.0373235
      186.0000      223089.30      286209.50      -0.0713994
      189.0000      263184.90      286209.50      0.0408094
      192.0000      254662.80      286209.50      0.0465776
      195.0000      247042.90      286209.50      -0.0111267
      198.0000      255597.20      286209.50      0.0043810
      201.0000      219629.20      286209.50      -0.0659223
      204.0000      243114.40      286209.50      -0.0158345
      207.0000      238390.80      286209.50      -0.0242315
      210.0000      234443.00      286209.50      0.0400074
      213.0000      223583.40      286209.50      0.0232160
      216.0000      222541.60      286209.50      -0.0035987
      219.0000      227236.30      286209.50      0.0231645
      222.0000      215254.10      286209.50      -0.0295321
      225.0000      221029.40      286209.50      -0.0092733
      228.0000      218868.30      286209.50      -0.0242818
      231.0000      203960.30      286209.50      -0.0493946
      234.0000      195386.70      286209.50      -0.0583167
      237.0000      177954.70      286209.50      -0.0932886
      240.0000      207308.80      286209.50      -0.0119916
      243.0000      191396.60      286209.50      -0.0775283
      246.0000      192367.80      286209.50      -0.0860047
      249.0000      220380.50      286209.50      0.0062549
      252.0000      208062.30      286209.50      -0.0300507
      255.0000      221720.90      286209.50      -0.0281058
      258.0000      225953.70      286209.50      -0.0238507
      261.0000      225953.70      286209.50      -0.0114399
      264.0000      218758.90      286209.50      -0.0382080
      267.0000      195595.10      286209.50      -0.1131809
      270.0000      220559.00      286209.50      -0.0165336
      273.0000      194238.60      286209.50      -0.0708551
      276.0000      216857.80      286209.50      -0.0496735
      279.0000      198198.40      286209.50      -0.1058556
      282.0000      122212.80      286209.50      -0.2979635
      285.0000      211230.80      286209.50      -0.0672597
      288.0000      233183.20      286209.50      -0.0653256
      291.0000      233012.60      286209.50      0.0039275
      294.0000      236994.40      286209.50      -0.0021624
      297.0000      253293.40      286209.50      0.0560052
      300.0000      280377.60      286209.50      0.1024623
      303.0000      287537.20      286209.50      0.1195577
      306.0000      261631.40      286209.50      0.0476657
      309.0000      299677.80      286209.50      0.1126114
      312.0000      297786.20      286209.50      0.1129410
      315.0000      295308.80      286209.50      0.0653290
      318.0000      271327.30      286209.50      0.0254207
      321.0000      298484.00      286209.50      0.0793873
      324.0000      298329.50      286209.50      0.0862091
      327.0000      291642.70      286209.50      0.0666930
      330.0000      299779.00      286209.50      0.0615361
      333.0000      312519.50      286209.50      0.1086690
      336.0000      321169.60      286209.50      0.0818724
      339.0000      296947.80      286209.50      0.0491724
      342.0000      312154.70      286209.50      0.0759111
      345.0000      331782.90      286209.50      0.0844260
      348.0000      326405.70      286209.50      0.0468369
      351.0000      305976.40      286209.50      -0.0430487
      354.0000      328248.80      286209.50      0.0126312
      357.0000      291699.90      286209.50      -0.0659343

       6     121       19.5900     27.0000      1.00000      0.00000
      0.0000      291780.50      260870.50      -0.0054698
      3.0000      307499.30      260870.50      -0.0110723
      6.0000      305706.20      260870.50      0.0070356
      9.0000      303575.30      260870.50      -0.0548360
      12.0000      311566.50      260870.50      -0.0680718
      15.0000      307319.00      260870.50      -0.0056083
      18.0000      310597.40      260870.50      0.0028266
      21.0000      308928.20      260870.50      -0.0203943
      24.0000      316027.90      260870.50      -0.0254508
      27.0000      330606.70      260870.50      0.0529233
      30.0000      359478.30      260870.50      0.0548816
      33.0000      338294.00      260870.50      0.0101443
      36.0000      359111.10      260870.50      0.0958477
      39.0000      326770.20      260870.50      0.0481020
      42.0000      332271.80      260870.50      0.0011187
      45.0000      338597.60      260870.50      0.0097327
      48.0000      348571.20      260870.50      0.0270949
      51.0000      345246.40      260870.50      0.0494727
      54.0000      319077.90      260870.50      -0.0342625
      57.0000      326855.10      260870.50      -0.0026815
      60.0000      312772.90      260870.50      -0.0143523
      63.0000      300329.30      260870.50      -0.0518067
      66.0000      311281.20      260870.50      -0.0331660
      69.0000      311281.20      260870.50      -0.0215188
      72.0000      311281.20      260870.50      -0.0174250
      75.0000      250128.90      260870.50      -0.1361592
      78.0000      279766.80      260870.50      -0.1153352
      81.0000      279995.80      260870.50      -0.0866681
      84.0000      279995.80      260870.50      -0.0115148
      87.0000      282148.10      260870.50      -0.0248051
      90.0000      272263.30      260870.50      -0.0660675
      93.0000      258021.90      260870.50      -0.0883026
      96.0000      269879.10      260870.50      -0.0920179
      99.0000      256076.30      260870.50      -0.0632566
      102.0000      252211.60      260870.50      -0.1034145
      105.0000      260133.70      260870.50      -0.0645140
      108.0000      241144.00      260870.50      -0.0417565
      111.0000      257462.30      260870.50      -0.0512395
      114.0000      257462.30      260870.50      -0.0000025
      117.0000      250402.20      260870.50      0.0185089
      120.0000      256406.10      260870.50      -0.0024725
      123.0000      234836.90      260870.50      0.0003128
      126.0000      275229.70      260870.50      0.0496751
      129.0000      277095.00      260870.50      0.0194721
      132.0000      263566.40      260870.50      0.1071061
      135.0000      277943.00      260870.50      0.0751957
      138.0000      275141.00      260870.50      0.0539904
      141.0000      272962.00      260870.50      0.0606117
      144.0000      276762.40      260870.50      0.0781263
      147.0000      286970.30      260870.50      0.1404901
      150.0000      277927.60      260870.50      0.0664528
      153.0000      257868.50      260870.50      0.0397187
      156.0000      266903.10      260870.50      0.0291411
      159.0000      266903.10      260870.50      0.0383487
      162.0000      295046.10      260870.50      0.1085764
      165.0000      265731.40      260870.50      0.0616216
      168.0000      265731.40      260870.50      0.0328685
      171.0000      235329.00      260870.50      -0.0513597
      174.0000      273523.10      260870.50      0.0560405
      177.0000      235579.00      260870.50      -0.0493419
      180.0000      247381.50      260870.50      -0.0054699
      183.0000      232008.90      260870.50      -0.0110723
      186.0000      240191.70      260870.50      0.0070356
      189.0000      212229.90      260870.50      -0.0548360
      192.0000      199335.50      260870.50      -0.0680718
      195.0000      228975.00      260870.50      -0.0056083
      198.0000      228975.00      260870.50      0.0028266
      201.0000      218406.00      260870.50      -0.0203943
      204.0000      209872.70      260870.50      -0.0254509
      207.0000      232690.90      260870.50      0.0529233
      210.0000      212287.90      260870.50      0.0548816
      213.0000      205949.80      260870.50      0.0101443
      216.0000      227282.80      260870.50      0.0958477
      219.0000      227282.80      260870.50      0.0481020
      222.0000      202080.00      260870.50      0.0011188
      225.0000      200144.30      260870.50      0.0097327
      228.0000      199451.80      260870.50      0.0270949
      231.0000      209889.40      260870.50      0.0494727
      234.0000      191033.90      260870.50      -0.0342625
      237.0000      197918.50      260870.50      -0.0026815
      240.0000      201503.50      260870.50      -0.0143523
      243.0000      193227.30      260870.50      -0.0518067
      246.0000      192573.20      260870.50      -0.0331660
      249.0000      196546.30      260870.50      -0.0215188
      252.0000      197393.90      260870.50      -0.0174250
      255.0000      189369.20      260870.50      -0.1361592
      258.0000      176646.80      260870.50      -0.1153352
      261.0000      188034.60      260870.50      -0.0866681
      264.0000      219552.20      260870.50      -0.0115149
      267.0000      211944.20      260870.50      -0.0248051
      270.0000      201166.30      260870.50      -0.0660675
      273.0000      201931.30      260870.50      -0.0883026
      276.0000      191264.80      260870.50      -0.0920179
      279.0000      214288.90      260870.50      -0.0632566
      282.0000      199733.10      260870.50      -0.1034145
      285.0000      210941.00      260870.50      -0.0645140
      288.0000      236633.10      260870.50      -0.0417565
      291.0000      219759.10      260870.50      -0.0512395
      294.0000      243707.10      260870.50      -0.0000025
      297.0000      259069.60      260870.50      0.0185089
      300.0000      245290.70      260870.50      -0.0024725
      303.0000      266568.50      260870.50      0.0003128
      306.0000      255637.30      260870.50      0.0496751
      309.0000      240564.90      260870.50      0.0194721
      312.0000      297247.50      260870.50      0.1071061
      315.0000      269771.50      260870.50      0.0751957
      318.0000      263477.90      260870.50      0.0539903
      321.0000      270717.10      260870.50      0.0606116
      324.0000      277825.40      260870.50      0.0781263
      327.0000      302117.60      260870.50      0.1404901
      330.0000      274507.40      260870.50      0.0664528
      333.0000      284068.10      260870.50      0.0397187
      336.0000      270564.70      260870.50      0.0291411
      339.0000      278052.80      260870.50      0.0383487
      342.0000      287545.30      260870.50      0.1085764
      345.0000      298192.80      260870.50      0.0616216
      348.0000      284038.50      260870.50      0.0328686
      351.0000      274668.70      260870.50      -0.0513597
      354.0000      293841.30      260870.50      0.0560405
      357.0000      281709.30      260870.50      -0.0493420

       7     121       19.5900     30.0000      1.00000      0.00000
      0.0000      670446.10      603709.80      0.0275867
      3.0000      601449.10      603709.80      -0.0667097
      6.0000      679335.60      603709.80      -0.0012908
      9.0000      669992.00      603709.80      -0.0414522
      12.0000      716439.10      603709.80      0.0157779
      15.0000      720112.90      603709.80      0.0220221
      18.0000      694873.70      603709.80      -0.0076333
      21.0000      663992.10      603709.80      -0.0290458
      24.0000      663992.10      603709.80      -0.0261704
      27.0000      672068.90      603709.80      -0.0275653
      30.0000      639683.60      603709.80      -0.0356981
      33.0000      716745.60      603709.80      -0.0301671
      36.0000      745663.10      603709.80      -0.0048552
      39.0000      715231.50      603709.80      -0.0433606
      42.0000      779625.80      603709.80      0.0345373
      45.0000      765939.80      603709.80      -0.0045748
      48.0000      807020.90      603709.80      0.0246190
      51.0000      757935.00      603709.80      -0.0384733
      54.0000      786236.00      603709.80      -0.0598042
      57.0000      740133.00      603709.80      -0.0361833
      60.0000      738256.20      603709.80      -0.0610992
      63.0000      730757.40      603709.80      -0.0403391
      66.0000      731816.10      603709.80      -0.0305684
      69.0000      690639.10      603709.80      -0.0503471
      72.0000      690639.10      603709.80      -0.0305650
      75.0000      638893.60      603709.80      -0.0975129
      78.0000      667820.10      603709.80      -0.0195839
      81.0000      667508.20      603709.80      -0.0481406
      84.0000      678950.20      603709.80      -0.0362497
      87.0000      667772.30      603709.80      -0.0293261
      90.0000      707973.10      603709.80      -0.0245533
      93.0000      686669.50      603709.80      -0.0022806
      96.0000      627395.50      603709.80      -0.0389930
      99.0000      627395.50      603709.80      -0.0258530
      102.0000      566679.80      603709.80      -0.0525499
      105.0000      591081.80      603709.80      0.0306816
      108.0000      625770.20      603709.80      -0.0450075
      111.0000      642093.10      603709.80      -0.0143955
      114.0000      618781.40      603709.80      -0.0073834
      117.0000      622364.40      603709.80      0.0230583
      120.0000      596982.10      603709.80      0.0346709
      123.0000      604387.30      603709.80      0.0412170
      126.0000      668917.40      603709.80      0.1002313
      129.0000      686391.30      603709.80      0.0856027
      132.0000      690348.10      603709.80      0.1368458
      135.0000      667346.70      603709.80      0.1571338
      138.0000      656412.00      603709.80      0.1340740
      141.0000      654814.40      603709.80      0.1341944
      144.0000      656561.80      603709.80      0.0602591
      147.0000      646276.10      603709.80      0.0630465
      150.0000      641241.90      603709.80      0.0973351
      153.0000      629710.00      603709.80      0.0062513
      156.0000      636915.60      603709.80      0.0651705
      159.0000      645462.70      603709.80      0.0665688
      162.0000      634311.40      603709.80      0.0204247
      165.0000      588481.90      603709.80      -0.0092009
      168.0000      585517.70      603709.80      -0.0562458
      171.0000      532788.20      603709.80      -0.0861330
      174.0000      553673.20      603709.80      -0.0885015
      177.0000      592735.20      603709.80      -0.0596606
      180.0000      589555.30      603709.80      0.0275867
      183.0000      540746.20      603709.80      -0.0667097
      186.0000      549111.90      603709.80      -0.0012909
      189.0000      511937.60      603709.80      -0.0414521
      192.0000      536391.10      603709.80      0.0157779
      195.0000      538953.30      603709.80      0.0220221
      198.0000      525148.00      603709.80      -0.0076334
      201.0000      524110.20      603709.80      -0.0290458
      204.0000      525246.60      603709.80      -0.0261704
      207.0000      515854.30      603709.80      -0.0275653
      210.0000      529095.00      603709.80      -0.0356981
      213.0000      476672.20      603709.80      -0.0301671
      216.0000      479802.50      603709.80      -0.0048552
      219.0000      460481.40      603709.80      -0.0433606
      222.0000      491500.40      603709.80      0.0345373
      225.0000      459695.60      603709.80      -0.0045748
      228.0000      457964.60      603709.80      0.0246190
      231.0000      427445.10      603709.80      -0.0384733
      234.0000      384362.80      603709.80      -0.0598042
      237.0000      438462.30      603709.80      -0.0361833
      240.0000      413182.40      603709.80      -0.0610992
      243.0000      437238.00      603709.80      -0.0403391
      246.0000      444402.20      603709.80      -0.0305684
      249.0000      452172.10      603709.80      -0.0503470
      252.0000      470192.60      603709.80      -0.0305650
      255.0000      439264.50      603709.80      -0.0975129
      258.0000      494587.00      603709.80      -0.0195839
      261.0000      465412.50      603709.80      -0.0481406
      264.0000      467986.00      603709.80      -0.0362497
      267.0000      482125.30      603709.80      -0.0293261
      270.0000      456823.10      603709.80      -0.0245533
      273.0000      494183.70      603709.80      -0.0022806
      276.0000      501040.50      603709.80      -0.0389930
      279.0000      514473.10      603709.80      -0.0258530
      282.0000      533924.40      603709.80      -0.0525499
      285.0000      601483.30      603709.80      0.0306816
      288.0000      497722.10      603709.80      -0.0450075
      291.0000      517534.00      603709.80      -0.0143955
      294.0000      544799.80      603709.80      -0.0073834
      297.0000      575852.40      603709.80      0.0230583
      300.0000      611582.20      603709.80      0.0346709
      303.0000      615363.20      603709.80      0.0412170
      306.0000      627579.40      603709.80      0.1002313
      309.0000      599271.80      603709.80      0.0856027
      312.0000      656103.80      603709.80      0.1368458
      315.0000      703995.60      603709.80      0.1571338
      318.0000      692587.80      603709.80      0.1340740
      321.0000      699341.80      603709.80      0.1341944
      324.0000      615585.50      603709.80      0.0602591
      327.0000      633561.00      603709.80      0.0630465
      330.0000      685467.80      603709.80      0.0973351
      333.0000      590513.60      603709.80      0.0062513
      336.0000      661804.70      603709.80      0.0651705
      339.0000      660216.20      603709.80      0.0665688
      342.0000      618560.60      603709.80      0.0204247
      345.0000      637685.60      603709.80      -0.0092009
      348.0000      583924.50      603709.80      -0.0562458
      351.0000      612550.90      603709.80      -0.0861330
      354.0000      589852.70      603709.80      -0.0885015
      357.0000      587247.00      603709.80      -0.0596606

       8     121       19.5900     33.0000      1.00000      0.00000
      0.0000      540701.50      563094.90      0.0465848
      3.0000      559370.30      563094.90      0.0414677
      6.0000      574082.90      563094.90      0.0421388
      9.0000      591269.40      563094.90      0.0034016
      12.0000      589879.60      563094.90      -0.0018772
      15.0000      574698.20      563094.90      -0.0133467
      18.0000      569498.60      563094.90      -0.0228108
      21.0000      554874.60      563094.90      -0.0355988
      24.0000      603621.60      563094.90      -0.0502738
      27.0000      545344.00      563094.90      -0.0686902
      30.0000      555572.70      563094.90      -0.0919164
      33.0000      574649.90      563094.90      -0.0812125
      36.0000      594007.20      563094.90      -0.0668866
      39.0000      627539.20      563094.90      -0.0301070
      42.0000      645232.60      563094.90      -0.0029718
      45.0000      680515.40      563094.90      0.0013741
      48.0000      701328.80      563094.90      0.0219202
      51.0000      656771.30      563094.90      -0.0184487
      54.0000      658235.50      563094.90      -0.0109378
      57.0000      678603.50      563094.90      0.0221962
      60.0000      647313.40      563094.90      -0.0561548
      63.0000      628405.40      563094.90      -0.0541217
      66.0000      593846.40      563094.90      -0.0443846
      69.0000      577658.70      563094.90      -0.0976578
      72.0000      551261.70      563094.90      -0.1053863
      75.0000      559825.60      563094.90      -0.1175205
      78.0000      555814.90      563094.90      -0.1022236
      81.0000      542004.00      563094.90      -0.1207531
      84.0000      586684.80      563094.90      -0.0477486
      87.0000      583635.50      563094.90      -0.1116098
      90.0000      648680.90      563094.90      -0.0154181
      93.0000      623122.60      563094.90      -0.0336277
      96.0000      646009.40      563094.90      0.0163025
      99.0000      625742.70      563094.90      -0.0308833
      102.0000      618465.50      563094.90      0.0111834
      105.0000      626875.10      563094.90      0.0332540
      108.0000      621908.80      563094.90      0.0336337
      111.0000      597784.20      563094.90      -0.0495960
      114.0000      615871.80      563094.90      0.0220960
      117.0000      604343.40      563094.90      0.0045034
      120.0000      667050.70      563094.90      0.0090088
      123.0000      589910.00      563094.90      0.0498979
      126.0000      648910.70      563094.90      0.0959233
      129.0000      659715.80      563094.90      0.1109429
      132.0000      671665.00      563094.90      0.1414557
      135.0000      646256.70      563094.90      0.0823052
      138.0000      656357.30      563094.90      0.1514201
      141.0000      684681.10      563094.90      0.1594944
      144.0000      647598.40      563094.90      0.1560589
      147.0000      644055.40      563094.90      0.1467357
      150.0000      650660.70      563094.90      0.1343577
      153.0000      615754.00      563094.90      0.0641859
      156.0000      597680.00      563094.90      0.0795739
      159.0000      557694.40      563094.90      0.0210671
      162.0000      594745.80      563094.90      0.0083336
      165.0000      551939.90      563094.90      -0.0359055
      168.0000      551382.50      563094.90      -0.0403604
      171.0000      557744.00      563094.90      -0.0421886
      174.0000      575452.60      563094.90      -0.0378581
      177.0000      524695.70      563094.90      -0.1127342
      180.0000      569365.10      563094.90      0.0465848
      183.0000      550949.60      563094.90      0.0414677
      186.0000      542416.40      563094.90      0.0421387
      189.0000      490546.50      563094.90      0.0034016
      192.0000      490546.50      563094.90      -0.0018772
      195.0000      495855.90      563094.90      -0.0133467
      198.0000      493519.00      563094.90      -0.0228108
      201.0000      495374.10      563094.90      -0.0355988
      204.0000      441195.80      563094.90      -0.0502738
      207.0000      473242.60      563094.90      -0.0686902
      210.0000      442941.50      563094.90      -0.0919164
      213.0000      439057.30      563094.90      -0.0812125
      216.0000      438513.80      563094.90      -0.0668865
      219.0000      448624.20      563094.90      -0.0301070
      222.0000      461742.90      563094.90      -0.0029718
      225.0000      439253.70      563094.90      0.0013741
      228.0000      443609.20      563094.90      0.0219202
      231.0000      439278.70      563094.90      -0.0184487
      234.0000      445549.60      563094.90      -0.0109378
      237.0000      461874.90      563094.90      0.0221962
      240.0000      411139.00      563094.90      -0.0561548
      243.0000      427172.40      563094.90      -0.0541218
      246.0000      461924.70      563094.90      -0.0443846
      249.0000      423709.90      563094.90      -0.0976578
      252.0000      435968.90      563094.90      -0.1053863
      255.0000      418379.50      563094.90      -0.1175205
      258.0000      435988.70      563094.90      -0.1022236
      261.0000      429068.30      563094.90      -0.1207531
      264.0000      465443.10      563094.90      -0.0477486
      267.0000      407746.70      563094.90      -0.1116099
      270.0000      451165.70      563094.90      -0.0154182
      273.0000      453843.00      563094.90      -0.0336277
      276.0000      485427.80      563094.90      0.0163025
      279.0000      456628.60      563094.90      -0.0308833
      282.0000      504565.60      563094.90      0.0111833
      285.0000      521466.30      563094.90      0.0332540
      288.0000      527951.10      563094.90      0.0336336
      291.0000      466789.50      563094.90      -0.0495959
      294.0000      526401.00      563094.90      0.0220960
      297.0000      520951.50      563094.90      0.0045034
      300.0000      475813.40      563094.90      0.0090088
      303.0000      587020.70      563094.90      0.0498979
      306.0000      588400.50      563094.90      0.0959233
      309.0000      599172.90      563094.90      0.1109429
      312.0000      626021.70      563094.90      0.1414557
      315.0000      589790.60      563094.90      0.0823052
      318.0000      662334.00      563094.90      0.1514201
      321.0000      650318.10      563094.90      0.1594943
      324.0000      689285.40      563094.90      0.1560589
      327.0000      689206.00      563094.90      0.1467357
      330.0000      675033.70      563094.90      0.1343577
      333.0000      634468.40      563094.90      0.0641859
      336.0000      680407.40      563094.90      0.0795739
      339.0000      659891.30      563094.90      0.0210671
      342.0000      608887.80      563094.90      0.0083337
      345.0000      608887.80      563094.90      -0.0359055
      348.0000      611201.30      563094.90      -0.0403604
      351.0000      608429.00      563094.90      -0.0421886
      354.0000      599202.70      563094.90      -0.0378581
      357.0000      567426.90      563094.90      -0.1127342

       9     121       19.5900     36.0000      1.00000      0.00000
      0.0000      526458.10      474123.80      0.0609509
      3.0000      549589.50      474123.80      0.0890044
      6.0000      569849.60      474123.80      0.1046903
      9.0000      581811.40      474123.80      0.1000690
      12.0000      575469.70      474123.80      0.0802109
      15.0000      568097.30      474123.80      0.0546254
      18.0000      559146.70      474123.80      0.0395148
      21.0000      553148.10      474123.80      0.0220594
      24.0000      534322.50      474123.80      -0.0084878
      27.0000      495843.30      474123.80      -0.0773304
      30.0000      482365.60      474123.80      -0.1027926
      33.0000      484477.30      474123.80      -0.1250836
      36.0000      484477.30      474123.80      -0.1178075
      39.0000      524622.10      474123.80      -0.0772363
      42.0000      541712.30      474123.80      -0.0595277
      45.0000      532950.40      474123.80      -0.0726127
      48.0000      537279.60      474123.80      -0.0639145
      51.0000      533463.40      474123.80      -0.0842305
      54.0000      534905.40      474123.80      -0.0791611
      57.0000      533191.70      474123.80      -0.0700753
      60.0000      526786.60      474123.80      -0.0751646
      63.0000      512430.80      474123.80      -0.0979401
      66.0000      504777.30      474123.80      -0.1043428
      69.0000      482533.30      474123.80      -0.1389285
      72.0000      474218.40      474123.80      -0.1616893
      75.0000      496084.40      474123.80      -0.1261521
      78.0000      531567.80      474123.80      -0.0708666
      81.0000      545987.60      474123.80      -0.0389377
      84.0000      580908.80      474123.80      0.0167890
      87.0000      561556.60      474123.80      0.0093394
      90.0000      579774.60      474123.80      0.0361704
      93.0000      606378.90      474123.80      0.0861948
      96.0000      593894.90      474123.80      0.1000663
      99.0000      560748.80      474123.80      0.0646901
      102.0000      551908.70      474123.80      0.0580447
      105.0000      526358.30      474123.80      0.0240394
      108.0000      522821.90      474123.80      0.0327583
      111.0000      500876.90      474123.80      -0.0003526
      114.0000      544203.90      474123.80      0.0368666
      117.0000      539221.30      474123.80      0.0285704
      120.0000      536128.80      474123.80      0.0220344
      123.0000      536073.20      474123.80      0.0317070
      126.0000      529351.20      474123.80      0.0542352
      129.0000      524055.50      474123.80      0.0507388
      132.0000      522004.00      474123.80      0.0499962
      135.0000      521224.90      474123.80      0.0750515
      138.0000      521683.20      474123.80      0.0872500
      141.0000      517953.50      474123.80      0.0975431
      144.0000      496150.10      474123.80      0.0787393
      147.0000      469128.00      474123.80      0.0565124
      150.0000      460524.30      474123.80      0.0394985
      153.0000      476687.30      474123.80      0.0377532
      156.0000      480934.50      474123.80      0.0366933
      159.0000      476419.40      474123.80      0.0243609
      162.0000      473497.40      474123.80      0.0068511
      165.0000      465691.80      474123.80      -0.0091963
      168.0000      465024.40      474123.80      -0.0066161
      171.0000      455932.20      474123.80      -0.0272196
      174.0000      466695.60      474123.80      -0.0140437
      177.0000      461977.80      474123.80      -0.0305959
      180.0000      467224.00      474123.80      0.0609509
      183.0000      472865.30      474123.80      0.0890043
      186.0000      470246.20      474123.80      0.1046903
      189.0000      457186.60      474123.80      0.1000690
      192.0000      445943.60      474123.80      0.0802109
      195.0000      430530.50      474123.80      0.0546254
      198.0000      424818.30      474123.80      0.0395148
      201.0000      414698.20      474123.80      0.0220594
      204.0000      403452.40      474123.80      -0.0084878
      207.0000      375753.10      474123.80      -0.0773304
      210.0000      364407.10      474123.80      -0.1027926
      213.0000      344250.30      474123.80      -0.1250836
      216.0000      349110.00      474123.80      -0.1178075
      219.0000      351443.00      474123.80      -0.0772363
      222.0000      352238.60      474123.80      -0.0595277
      225.0000      347204.50      474123.80      -0.0726127
      228.0000      349893.60      474123.80      -0.0639145
      231.0000      335839.70      474123.80      -0.0842305
      234.0000      337739.80      474123.80      -0.0791611
      237.0000      344885.40      474123.80      -0.0700753
      240.0000      344419.80      474123.80      -0.0751646
      243.0000      335980.20      474123.80      -0.0979401
      246.0000      335511.30      474123.80      -0.1043428
      249.0000      323707.70      474123.80      -0.1389286
      252.0000      311450.30      474123.80      -0.1616892
      255.0000      322844.70      474123.80      -0.1261521
      258.0000      339890.90      474123.80      -0.0708666
      261.0000      353799.00      474123.80      -0.0389377
      264.0000      371671.50      474123.80      0.0167890
      267.0000      379403.80      474123.80      0.0093394
      270.0000      387121.40      474123.80      0.0361704
      273.0000      406924.70      474123.80      0.0861948
      276.0000      427159.40      474123.80      0.1000663
      279.0000      424394.10      474123.80      0.0646900
      282.0000      426647.20      474123.80      0.0580446
      285.0000      419976.70      474123.80      0.0240394
      288.0000      431134.00      474123.80      0.0327583
      291.0000      423020.30      474123.80      -0.0003526
      294.0000      421131.60      474123.80      0.0368666
      297.0000      420109.40      474123.80      0.0285704
      300.0000      419184.40      474123.80      0.0220344
      303.0000      429691.40      474123.80      0.0317070
      306.0000      457473.20      474123.80      0.0542353
      309.0000      462142.20      474123.80      0.0507388
      312.0000      466676.40      474123.80      0.0499962
      315.0000      493679.60      474123.80      0.0750515
      318.0000      508666.80      474123.80      0.0872500
      321.0000      526509.80      474123.80      0.0975431
      324.0000      535335.40      474123.80      0.0787393
      327.0000      546914.60      474123.80      0.0565123
      330.0000      545301.90      474123.80      0.0394985
      333.0000      532506.70      474123.80      0.0377532
      336.0000      532819.90      474123.80      0.0366933
      339.0000      531220.90      474123.80      0.0243609
      342.0000      522189.30      474123.80      0.0068511
      345.0000      520304.80      474123.80      -0.0091962
      348.0000      530367.70      474123.80      -0.0066161
      351.0000      525156.00      474123.80      -0.0272195
      354.0000      532940.30      474123.80      -0.0140437
      357.0000      526391.90      474123.80      -0.0305959

       10     121       19.5900     39.0000      1.00000      0.00000
      0.0000      524310.90      446278.20      0.0510284
      3.0000      538041.70      446278.20      0.0565073
      6.0000      547455.80      446278.20      0.0680789
      9.0000      562716.00      446278.20      0.0763486
      12.0000      576566.10      446278.20      0.1010724
      15.0000      578604.20      446278.20      0.0826845
      18.0000      587790.60      446278.20      0.0816823
      21.0000      565225.40      446278.20      0.0471199
      24.0000      540703.30      446278.20      0.0188833
      27.0000      500150.50      446278.20      -0.0457823
      30.0000      475421.20      446278.20      -0.1017910
      33.0000      473208.40      446278.20      -0.1118327
      36.0000      497019.60      446278.20      -0.0823515
      39.0000      512265.80      446278.20      -0.0517701
      42.0000      517068.30      446278.20      -0.0485161
      45.0000      499671.90      446278.20      -0.0804845
      48.0000      503019.50      446278.20      -0.0805277
      51.0000      495602.90      446278.20      -0.1012631
      54.0000      501111.60      446278.20      -0.0930109
      57.0000      507386.40      446278.20      -0.0813254
      60.0000      521026.30      446278.20      -0.0497154
      63.0000      506943.00      446278.20      -0.0654955
      66.0000      485238.80      446278.20      -0.0927185
      69.0000      445969.90      446278.20      -0.1696434
      72.0000      458562.60      446278.20      -0.1418879
      75.0000      496695.90      446278.20      -0.1050643
      78.0000      521774.70      446278.20      -0.0549890
      81.0000      521774.70      446278.20      -0.0306092
      84.0000      545134.30      446278.20      0.0076107
      87.0000      572565.30      446278.20      0.0626287
      90.0000      547585.30      446278.20      0.0306528
      93.0000      548097.90      446278.20      0.0390481
      96.0000      532779.70      446278.20      0.0454193
      99.0000      516755.40      446278.20      0.0390178
      102.0000      518424.70      446278.20      0.0379149
      105.0000      503169.10      446278.20      0.0210305
      108.0000      507467.80      446278.20      0.0363790
      111.0000      529687.80      446278.20      0.0435712
      114.0000      564842.10      446278.20      0.0893161
      117.0000      552692.60      446278.20      0.0768758
      120.0000      539263.90      446278.20      0.0747274
      123.0000      513744.30      446278.20      0.0499674
      126.0000      506489.30      446278.20      0.0430165
      129.0000      496295.90      446278.20      0.0298649
      132.0000      489062.60      446278.20      0.0195026
      135.0000      471502.10      446278.20      -0.0021099
      138.0000      445286.70      446278.20      -0.0334531
      141.0000      438995.90      446278.20      -0.0273892
      144.0000      438928.70      446278.20      -0.0333881
      147.0000      457197.00      446278.20      -0.0058279
      150.0000      456071.00      446278.20      0.0085529
      153.0000      476599.40      446278.20      0.0363855
      156.0000      472661.90      446278.20      0.0397374
      159.0000      464809.90      446278.20      0.0390135
      162.0000      453802.80      446278.20      0.0432482
      165.0000      451666.00      446278.20      0.0627965
      168.0000      442705.80      446278.20      0.0483218
      171.0000      445324.30      446278.20      0.0232962
      174.0000      444999.70      446278.20      0.0159980
      177.0000      443858.10      446278.20      0.0067357
      180.0000      432624.20      446278.20      0.0510284
      183.0000      426009.90      446278.20      0.0565073
      186.0000      427607.50      446278.20      0.0680789
      189.0000      421843.40      446278.20      0.0763486
      192.0000      430056.30      446278.20      0.1010724
      195.0000      413165.70      446278.20      0.0826845
      198.0000      404522.00      446278.20      0.0816823
      201.0000      393128.80      446278.20      0.0471199
      204.0000      387767.40      446278.20      0.0188833
      207.0000      366042.60      446278.20      -0.0457823
      210.0000      339760.60      446278.20      -0.1017910
      213.0000      332225.70      446278.20      -0.1118327
      216.0000      336027.80      446278.20      -0.0823515
      219.0000      346371.90      446278.20      -0.0517701
      222.0000      343721.60      446278.20      -0.0485160
      225.0000      330450.40      446278.20      -0.0804845
      228.0000      326458.80      446278.20      -0.0805277
      231.0000      314826.40      446278.20      -0.1012630
      234.0000      315422.30      446278.20      -0.0930109
      237.0000      317949.60      446278.20      -0.0813254
      240.0000      329709.90      446278.20      -0.0497154
      243.0000      326178.20      446278.20      -0.0654955
      246.0000      319704.90      446278.20      -0.0927185
      249.0000      290089.90      446278.20      -0.1696434
      252.0000      300044.40      446278.20      -0.1418879
      255.0000      299645.60      446278.20      -0.1050643
      258.0000      316976.30      446278.20      -0.0549890
      261.0000      332889.20      446278.20      -0.0306091
      264.0000      343148.00      446278.20      0.0076106
      267.0000      362490.70      446278.20      0.0626287
      270.0000      356017.40      446278.20      0.0306528
      273.0000      360996.50      446278.20      0.0390481
      276.0000      375587.20      446278.20      0.0454193
      279.0000      382002.30      446278.20      0.0390178
      282.0000      380185.60      446278.20      0.0379149
      285.0000      379152.60      446278.20      0.0210305
      288.0000      387762.80      446278.20      0.0363790
      291.0000      377538.10      446278.20      0.0435712
      294.0000      385975.60      446278.20      0.0893161
      297.0000      386674.60      446278.20      0.0768758
      300.0000      396446.00      446278.20      0.0747274
      303.0000      398966.70      446278.20      0.0499674
      306.0000      401136.00      446278.20      0.0430165
      309.0000      401136.00      446278.20      0.0298648
      312.0000      401136.00      446278.20      0.0195026
      315.0000      401136.00      446278.20      -0.0021099
      318.0000      401136.00      446278.20      -0.0334531
      321.0000      414849.60      446278.20      -0.0273892
      324.0000      413210.80      446278.20      -0.0333881
      327.0000      423100.40      446278.20      -0.0058279
      330.0000      440450.50      446278.20      0.0085529
      333.0000      448775.30      446278.20      0.0363856
      336.0000      460015.40      446278.20      0.0397374
      339.0000      472161.20      446278.20      0.0390135
      342.0000      493134.60      446278.20      0.0432482
      345.0000      520019.90      446278.20      0.0627965
      348.0000      522305.80      446278.20      0.0483218
      351.0000      500185.20      446278.20      0.0232962
      354.0000      498964.20      446278.20      0.0159980
      357.0000      496574.20      446278.20      0.0067358

       11     121       19.5900     42.0000      1.00000      0.00000
      0.0000      438940.60      379942.80      0.0420262
      3.0000      445066.80      379942.80      0.0526203
      6.0000      438750.00      379942.80      0.0402135
      9.0000      431327.80      379942.80      0.0086685
      12.0000      453668.70      379942.80      0.0272678
      15.0000      470655.30      379942.80      0.0364375
      18.0000      471553.40      379942.80      0.0355463
      21.0000      461042.90      379942.80      0.0251922
      24.0000      458575.80      379942.80      0.0014970
      27.0000      427907.80      379942.80      -0.0508445
      30.0000      394167.50      379942.80      -0.1009901
      33.0000      384161.00      379942.80      -0.1162098
      36.0000      396564.00      379942.80      -0.0741948
      39.0000      419773.20      379942.80      -0.0524991
      42.0000      422973.40      379942.80      -0.0456959
      45.0000      429091.70      379942.80      -0.0446368
      48.0000      425189.90      379942.80      -0.0485905
      51.0000      425206.90      379942.80      -0.0566400
      54.0000      423049.70      379942.80      -0.0469218
      57.0000      415893.30      379942.80      -0.0695299
      60.0000      415769.60      379942.80      -0.0535535
      63.0000      409575.60      379942.80      -0.0594650
      66.0000      394095.20      379942.80      -0.0726508
      69.0000      379441.10      379942.80      -0.1058627
      72.0000      382605.40      379942.80      -0.1117205
      75.0000      407671.30      379942.80      -0.0816051
      78.0000      426424.10      379942.80      -0.0326515
      81.0000      429984.00      379942.80      -0.0304978
      84.0000      443420.70      379942.80      0.0046230
      87.0000      429988.40      379942.80      -0.0013723
      90.0000      409929.40      379942.80      -0.0109639
      93.0000      404110.00      379942.80      -0.0135297
      96.0000      407461.10      379942.80      -0.0068958
      99.0000      406528.60      379942.80      -0.0110720
      102.0000      405755.90      379942.80      0.0060935
      105.0000      390331.40      379942.80      -0.0052184
      108.0000      391991.20      379942.80      0.0155009
      111.0000      420173.10      379942.80      0.0428144
      114.0000      429394.20      379942.80      0.0554687
      117.0000      437459.10      379942.80      0.0651841
      120.0000      437235.30      379942.80      0.0692237
      123.0000      436605.10      379942.80      0.0892556
      126.0000      438596.50      379942.80      0.1153276
      129.0000      438596.50      379942.80      0.1325756
      132.0000      432497.90      379942.80      0.1207425
      135.0000      386472.30      379942.80      0.0152792
      138.0000      380501.60      379942.80      -0.0109690
      141.0000      370982.00      379942.80      -0.0394258
      144.0000      375845.00      379942.80      -0.0329707
      147.0000      389808.20      379942.80      -0.0034518
      150.0000      394017.60      379942.80      0.0467687
      153.0000      408498.50      379942.80      0.0819018
      156.0000      408764.30      379942.80      0.0891695
      159.0000      392336.90      379942.80      0.0620369
      162.0000      373055.30      379942.80      0.0407676
      165.0000      370079.80      379942.80      0.0499800
      168.0000      356018.90      379942.80      0.0363464
      171.0000      355574.10      379942.80      0.0064639
      174.0000      350022.40      379942.80      -0.0197323
      177.0000      346209.80      379942.80      -0.0394487
      180.0000      345656.00      379942.80      0.0420261
      183.0000      348059.60      379942.80      0.0526203
      186.0000      344804.50      379942.80      0.0402135
      189.0000      329575.10      379942.80      0.0086685
      192.0000      324307.80      379942.80      0.0272678
      195.0000      317071.20      379942.80      0.0364375
      198.0000      315452.90      379942.80      0.0355463
      201.0000      316103.80      379942.80      0.0251922
      204.0000      302176.30      379942.80      0.0014970
      207.0000      290637.80      379942.80      -0.0508445
      210.0000      282625.50      379942.80      -0.1009901
      213.0000      279458.20      379942.80      -0.1162098
      216.0000      296068.40      379942.80      -0.0741948
      219.0000      292269.00      379942.80      -0.0524991
      222.0000      293390.10      379942.80      -0.0456959
      225.0000      288915.20      379942.80      -0.0446368
      228.0000      288409.40      379942.80      -0.0485905
      231.0000      282676.60      379942.80      -0.0566400
      234.0000      289425.70      379942.80      -0.0469218
      237.0000      279880.50      379942.80      -0.0695298
      240.0000      289149.70      379942.80      -0.0535535
      243.0000      289325.10      379942.80      -0.0594650
      246.0000      291674.00      379942.80      -0.0726508
      249.0000      281282.70      379942.80      -0.1058627
      252.0000      275190.30      379942.80      -0.1117205
      255.0000      275697.70      379942.80      -0.0816051
      258.0000      292402.40      379942.80      -0.0326515
      261.0000      291134.90      379942.80      -0.0304977
      264.0000      303321.60      379942.80      0.0046230
      267.0000      309707.40      379942.80      -0.0013723
      270.0000      319082.20      379942.80      -0.0109639
      273.0000      322535.70      379942.80      -0.0135298
      276.0000      325077.00      379942.80      -0.0068958
      279.0000      324092.90      379942.80      -0.0110720
      282.0000      337078.90      379942.80      0.0060935
      285.0000      343432.90      379942.80      -0.0052185
      288.0000      357618.70      379942.80      0.0155010
      291.0000      354530.00      379942.80      0.0428144
      294.0000      357273.10      379942.80      0.0554687
      297.0000      359047.40      379942.80      0.0651841
      300.0000      364230.20      379942.80      0.0692237
      303.0000      381439.50      379942.80      0.0892556
      306.0000      401201.20      379942.80      0.1153276
      309.0000      417028.40      379942.80      0.1325756
      312.0000      417620.10      379942.80      0.1207424
      315.0000      386980.40      379942.80      0.0152792
      318.0000      376406.70      379942.80      -0.0109690
      321.0000      367573.70      379942.80      -0.0394258
      324.0000      371118.70      379942.80      -0.0329706
      327.0000      383509.00      379942.80      -0.0034518
      330.0000      424543.40      379942.80      0.0467687
      333.0000      442231.00      379942.80      0.0819018
      336.0000      453282.80      379942.80      0.0891695
      339.0000      454986.80      379942.80      0.0620370
      342.0000      466052.50      379942.80      0.0407676
      345.0000      484695.30      379942.80      0.0499801
      348.0000      497617.80      379942.80      0.0363464
      351.0000      476488.20      379942.80      0.0064639
      354.0000      465367.90      379942.80      -0.0197323
      357.0000      457753.90      379942.80      -0.0394487

       12     121       19.5900     45.0000      1.00000      0.00000
      0.0000      398636.40      358543.10      0.0068470
      3.0000      412388.50      358543.10      0.0235731
      6.0000      426565.50      358543.10      0.0297125
      9.0000      407288.90      358543.10      -0.0112513
      12.0000      401470.40      358543.10      -0.0280402
      15.0000      418714.20      358543.10      -0.0128984
      18.0000      444666.40      358543.10      0.0030071
      21.0000      453984.60      358543.10      0.0382771
      24.0000      427749.70      358543.10      -0.0059086
      27.0000      425616.30      358543.10      -0.0181275
      30.0000      400282.30      358543.10      -0.0545882
      33.0000      393639.50      358543.10      -0.0837702
      36.0000      399460.90      358543.10      -0.0663721
      39.0000      401397.30      358543.10      -0.0802191
      42.0000      429945.00      358543.10      -0.0316928
      45.0000      465143.60      358543.10      0.0164919
      48.0000      465143.60      358543.10      0.0452244
      51.0000      476369.10      358543.10      0.0681506
      54.0000      470609.30      358543.10      0.0490002
      57.0000      449151.70      358543.10      0.0313281
      60.0000      418529.80      358543.10      -0.0273934
      63.0000      398029.90      358543.10      -0.0804627
      66.0000      385065.20      358543.10      -0.1004599
      69.0000      372471.00      358543.10      -0.1160969
      72.0000      392408.90      358543.10      -0.0953992
      75.0000      392271.50      358543.10      -0.0950979
      78.0000      408561.40      358543.10      -0.0685771
      81.0000      414522.50      358543.10      -0.0325088
      84.0000      420736.50      358543.10      -0.0239545
      87.0000      396376.20      358543.10      -0.0438960
      90.0000      392172.50      358543.10      -0.0560002
      93.0000      387213.40      358543.10      -0.0443482
      96.0000      382318.40      358543.10      -0.0509843
      99.0000      396767.50      358543.10      0.0122974
      102.0000      410199.00      358543.10      0.0416698
      105.0000      400720.40      358543.10      0.0094594
      108.0000      400973.80      358543.10      0.0271584
      111.0000      402509.10      358543.10      0.0274083
      114.0000      416834.50      358543.10      0.0476599
      117.0000      417528.70      358543.10      0.0706774
      120.0000      414653.10      358543.10      0.0709466
      123.0000      410294.70      358543.10      0.0726511
      126.0000      417913.80      358543.10      0.1098032
      129.0000      408469.60      358543.10      0.1235753
      132.0000      391965.80      358543.10      0.0743458
      135.0000      382749.20      358543.10      0.0418358
      138.0000      387105.90      358543.10      0.0412883
      141.0000      384694.50      358543.10      0.0446254
      144.0000      382492.90      358543.10      0.0262802
      147.0000      369675.50      358543.10      0.0044395
      150.0000      364899.10      358543.10      0.0226199
      153.0000      369838.70      358543.10      0.0735604
      156.0000      375980.30      358543.10      0.0804912
      159.0000      358719.80      358543.10      0.0375274
      162.0000      351177.70      358543.10      0.0082866
      165.0000      348649.40      358543.10      0.0082097
      168.0000      341113.60      358543.10      -0.0097512
      171.0000      329194.60      358543.10      -0.0422668
      174.0000      326283.90      358543.10      -0.0665604
      177.0000      323984.00      358543.10      -0.0722975
      180.0000      332875.90      358543.10      0.0068470
      183.0000      332542.00      358543.10      0.0235731
      186.0000      325053.30      358543.10      0.0297125
      189.0000      313470.40      358543.10      -0.0112513
      192.0000      306687.80      358543.10      -0.0280401
      195.0000      302487.50      358543.10      -0.0128984
      198.0000      292410.80      358543.10      0.0030071
      201.0000      306447.70      358543.10      0.0382771
      204.0000      297392.30      358543.10      -0.0059086
      207.0000      290410.90      358543.10      -0.0181274
      210.0000      285188.90      358543.10      -0.0545882
      213.0000      271207.40      358543.10      -0.0837702
      216.0000      276261.00      358543.10      -0.0663721
      219.0000      265532.90      358543.10      -0.0802192
      222.0000      273237.00      358543.10      -0.0316928
      225.0000      276170.70      358543.10      0.0164919
      228.0000      291480.20      358543.10      0.0452244
      231.0000      295792.60      358543.10      0.0681506
      234.0000      287285.80      358543.10      0.0490002
      237.0000      290162.10      358543.10      0.0313281
      240.0000      275804.90      358543.10      -0.0273934
      243.0000      258122.50      358543.10      -0.0804627
      246.0000      254376.00      358543.10      -0.1004599
      249.0000      252970.50      358543.10      -0.1160969
      252.0000      250543.10      358543.10      -0.0953992
      255.0000      250003.50      358543.10      -0.0950979
      258.0000      253354.10      358543.10      -0.0685771
      261.0000      269143.50      358543.10      -0.0325088
      264.0000      269205.30      358543.10      -0.0239545
      267.0000      274069.60      358543.10      -0.0438960
      270.0000      269750.50      358543.10      -0.0560003
      273.0000      279771.10      358543.10      -0.0443482
      276.0000      279400.80      358543.10      -0.0509843
      279.0000      306116.90      358543.10      0.0122973
      282.0000      314011.70      358543.10      0.0416698
      285.0000      302456.50      358543.10      0.0094594
      288.0000      313466.10      358543.10      0.0271584
      291.0000      313306.80      358543.10      0.0274083
      294.0000      315539.00      358543.10      0.0476599
      297.0000      330229.90      358543.10      0.0706774
      300.0000      334063.90      358543.10      0.0709466
      303.0000      340265.70      358543.10      0.0726511
      306.0000      359425.10      358543.10      0.1098032
      309.0000      378570.10      358543.10      0.1235753
      312.0000      363260.30      358543.10      0.0743458
      315.0000      352455.50      358543.10      0.0418358
      318.0000      350741.30      358543.10      0.0412883
      321.0000      358023.70      358543.10      0.0446255
      324.0000      350230.70      358543.10      0.0262801
      327.0000      350288.40      358543.10      0.0044395
      330.0000      371521.10      358543.10      0.0226199
      333.0000      407765.50      358543.10      0.0735604
      336.0000      410765.80      358543.10      0.0804912
      339.0000      401308.40      358543.10      0.0375274
      342.0000      391471.60      358543.10      0.0082866
      345.0000      398885.90      358543.10      0.0082097
      348.0000      398046.00      358543.10      -0.0097512
      351.0000      390579.20      358543.10      -0.0422668
      354.0000      378374.60      358543.10      -0.0665604
      357.0000      381100.80      358543.10      -0.0722976

       13     121       19.5900     48.0000      1.00000      0.00000
      0.0000      359251.20      334197.00      0.0135918
      3.0000      373710.40      334197.00      0.0315500
      6.0000      359911.20      334197.00      0.0034591
      9.0000      362169.60      334197.00      -0.0081133
      12.0000      364378.60      334197.00      0.0060853
      15.0000      363300.30      334197.00      -0.0135126
      18.0000      384256.60      334197.00      0.0214254
      21.0000      384071.80      334197.00      -0.0066252
      24.0000      383476.50      334197.00      -0.0131216
      27.0000      370687.30      334197.00      -0.0565947
      30.0000      366475.10      334197.00      -0.0441669
      33.0000      357128.30      334197.00      -0.0837606
      36.0000      375085.80      334197.00      -0.0594754
      39.0000      389895.20      334197.00      -0.0354432
      42.0000      411168.90      334197.00      0.0046077
      45.0000      421022.70      334197.00      0.0308740
      48.0000      410932.70      334197.00      0.0228705
      51.0000      400438.80      334197.00      0.0162181
      54.0000      402057.90      334197.00      0.0152479
      57.0000      398285.60      334197.00      -0.0038447
      60.0000      401956.70      334197.00      0.0093076
      63.0000      392374.00      334197.00      -0.0375776
      66.0000      355644.60      334197.00      -0.0950261
      69.0000      345049.20      334197.00      -0.1030165
      72.0000      349778.20      334197.00      -0.1007954
      75.0000      354292.90      334197.00      -0.0897435
      78.0000      358774.40      334197.00      -0.0720044
      81.0000      357677.10      334197.00      -0.0865139
      84.0000      376109.00      334197.00      -0.0283068
      87.0000      358551.10      334197.00      -0.0706753
      90.0000      355471.50      334197.00      -0.0752461
      93.0000      363492.90      334197.00      -0.0449471
      96.0000      358387.70      334197.00      -0.0530365
      99.0000      357583.60      334197.00      -0.0448592
      102.0000      364300.10      334197.00      -0.0046121
      105.0000      359034.50      334197.00      -0.0294579
      108.0000      358509.80      334197.00      -0.0248909
      111.0000      359675.80      334197.00      -0.0068303
      114.0000      374005.40      334197.00      0.0137323
      117.0000      380853.20      334197.00      0.0293623
      120.0000      376544.60      334197.00      0.0528381
      123.0000      373784.50      334197.00      0.0543211
      126.0000      393732.60      334197.00      0.0956345
      129.0000      394119.60      334197.00      0.1103122
      132.0000      391022.80      334197.00      0.1063824
      135.0000      384270.80      334197.00      0.0966359
      138.0000      386551.50      334197.00      0.1053989
      141.0000      377640.10      334197.00      0.0963746
      144.0000      385361.10      334197.00      0.1069114
      147.0000      384936.30      334197.00      0.1070066
      150.0000      373182.20      334197.00      0.0858596
      153.0000      375087.90      334197.00      0.0857158
      156.0000      354533.80      334197.00      0.0575420
      159.0000      342496.90      334197.00      0.0191627
      162.0000      334791.50      334197.00      0.0080700
      165.0000      337866.90      334197.00      0.0196732
      168.0000      335875.20      334197.00      0.0044819
      171.0000      317227.30      334197.00      -0.0347380
      174.0000      308033.20      334197.00      -0.0541049
      177.0000      301339.10      334197.00      -0.0852898
      180.0000      307971.60      334197.00      0.0135918
      183.0000      307800.70      334197.00      0.0315500
      186.0000      303631.20      334197.00      0.0034591
      189.0000      295532.20      334197.00      -0.0081133
      192.0000      302765.80      334197.00      0.0060853
      195.0000      292293.60      334197.00      -0.0135125
      198.0000      296378.80      334197.00      0.0214254
      201.0000      280192.90      334197.00      -0.0066252
      204.0000      276856.60      334197.00      -0.0131216
      207.0000      261388.70      334197.00      -0.0565947
      210.0000      271368.60      334197.00      -0.0441669
      213.0000      255378.70      334197.00      -0.0837606
      216.0000      255450.50      334197.00      -0.0594755
      219.0000      257678.30      334197.00      -0.0354432
      222.0000      264157.20      334197.00      0.0046077
      225.0000      271083.20      334197.00      0.0308741
      228.0000      273132.40      334197.00      0.0228705
      231.0000      276127.30      334197.00      0.0162181
      234.0000      273706.90      334197.00      0.0152479
      237.0000      265191.20      334197.00      -0.0038447
      240.0000      269074.80      334197.00      0.0093076
      243.0000      249623.10      334197.00      -0.0375776
      246.0000      243332.70      334197.00      -0.0950262
      249.0000      245786.70      334197.00      -0.1030165
      252.0000      243220.90      334197.00      -0.1007953
      255.0000      245618.10      334197.00      -0.0897435
      258.0000      251705.40      334197.00      -0.0720044
      261.0000      244323.40      334197.00      -0.0865139
      264.0000      262700.90      334197.00      -0.0283068
      267.0000      251927.40      334197.00      -0.0706753
      270.0000      251583.80      334197.00      -0.0752461
      273.0000      262490.00      334197.00      -0.0449471
      276.0000      261922.20      334197.00      -0.0530365
      279.0000      267349.40      334197.00      -0.0448593
      282.0000      285271.90      334197.00      -0.0046121
      285.0000      275945.00      334197.00      -0.0294579
      288.0000      279679.10      334197.00      -0.0248909
      291.0000      290000.70      334197.00      -0.0068303
      294.0000      291757.20      334197.00      0.0137323
      297.0000      296603.90      334197.00      0.0293623
      300.0000      315261.50      334197.00      0.0528380
      303.0000      320119.80      334197.00      0.0543211
      306.0000      330170.20      334197.00      0.0956344
      309.0000      340861.50      334197.00      0.1103122
      312.0000      343449.70      334197.00      0.1063824
      315.0000      345862.20      334197.00      0.0966359
      318.0000      352062.30      334197.00      0.1053989
      321.0000      357472.60      334197.00      0.0963745
      324.0000      360134.00      334197.00      0.1069114
      327.0000      363855.60      334197.00      0.1070066
      330.0000      364720.10      334197.00      0.0858596
      333.0000      366230.60      334197.00      0.0857158
      336.0000      371965.10      334197.00      0.0575420
      339.0000      361476.80      334197.00      0.0191627
      342.0000      366080.30      334197.00      0.0080700
      345.0000      375545.00      334197.00      0.0196732
      348.0000      370724.80      334197.00      0.0044819
      351.0000      367460.30      334197.00      -0.0347380
      354.0000      368302.40      334197.00      -0.0541049
      357.0000      356253.50      334197.00      -0.0852898

       14     121       19.5900     51.0000      1.00000      0.00000
      0.0000      315038.70      287548.20      0.0341847
      3.0000      318542.40      287548.20      0.0298105
      6.0000      315739.70      287548.20      0.0188998
      9.0000      313110.40      287548.20      0.0086148
      12.0000      326716.80      287548.20      0.0428552
      15.0000      333211.60      287548.20      0.0179958
      18.0000      331848.00      287548.20      0.0155762
      21.0000      326765.60      287548.20      -0.0176401
      24.0000      324181.20      287548.20      -0.0479843
      27.0000      310897.80      287548.20      -0.0762960
      30.0000      311508.80      287548.20      -0.0876215
      33.0000      319421.20      287548.20      -0.0640804
      36.0000      326428.50      287548.20      -0.0680276
      39.0000      350569.30      287548.20      -0.0268385
      42.0000      373124.10      287548.20      0.0308318
      45.0000      367121.90      287548.20      0.0487951
      48.0000      348080.40      287548.20      0.0324660
      51.0000      335746.20      287548.20      -0.0085426
      54.0000      330462.60      287548.20      -0.0330325
      57.0000      356544.20      287548.20      0.0175989
      60.0000      361829.00      287548.20      0.0276872
      63.0000      338288.90      287548.20      -0.0188782
      66.0000      322413.10      287548.20      -0.0724663
      69.0000      309257.00      287548.20      -0.1015462
      72.0000      296141.90      287548.20      -0.1267539
      75.0000      297695.70      287548.20      -0.1226235
      78.0000      301902.50      287548.20      -0.1116377
      81.0000      299792.30      287548.20      -0.1157577
      84.0000      310655.30      287548.20      -0.0950880
      87.0000      310704.70      287548.20      -0.0634805
      90.0000      309575.80      287548.20      -0.0581792
      93.0000      314655.90      287548.20      -0.0306486
      96.0000      308516.90      287548.20      -0.0310908
      99.0000      316733.50      287548.20      -0.0162410
      102.0000      312077.60      287548.20      -0.0131844
      105.0000      316987.90      287548.20      0.0041508
      108.0000      320086.90      287548.20      -0.0127347
      111.0000      309591.20      287548.20      -0.0253892
      114.0000      311470.50      287548.20      -0.0162557
      117.0000      309803.20      287548.20      -0.0230724
      120.0000      299911.20      287548.20      -0.0207957
      123.0000      298198.60      287548.20      -0.0293254
      126.0000      328450.10      287548.20      0.0670920
      129.0000      330834.80      287548.20      0.1037279
      132.0000      356360.00      287548.20      0.1634316
      135.0000      346543.60      287548.20      0.1584745
      138.0000      338713.00      287548.20      0.1258737
      141.0000      335849.30      287548.20      0.1276661
      144.0000      337573.50      287548.20      0.1520454
      147.0000      326637.40      287548.20      0.1251799
      150.0000      338307.30      287548.20      0.1464000
      153.0000      329531.80      287548.20      0.1347378
      156.0000      311915.80      287548.20      0.0920641
      159.0000      283003.10      287548.20      -0.0024687
      162.0000      278397.80      287548.20      -0.0201056
      165.0000      268397.50      287548.20      -0.0413425
      168.0000      267871.20      287548.20      -0.0405266
      171.0000      266979.70      287548.20      -0.0493823
      174.0000      275066.20      287548.20      -0.0484964
      177.0000      275945.00      287548.20      -0.0366138
      180.0000      270957.00      287548.20      0.0341847
      183.0000      266648.00      287548.20      0.0298105
      186.0000      264048.70      287548.20      0.0188998
      189.0000      261365.70      287548.20      0.0086148
      192.0000      268081.40      287548.20      0.0428552
      195.0000      250546.00      287548.20      0.0179958
      198.0000      250435.40      287548.20      0.0155762
      201.0000      237737.70      287548.20      -0.0176401
      204.0000      224580.20      287548.20      -0.0479843
      207.0000      220349.00      287548.20      -0.0762960
      210.0000      214053.90      287548.20      -0.0876215
      213.0000      219237.00      287548.20      -0.0640804
      216.0000      211862.80      287548.20      -0.0680276
      219.0000      213854.20      287548.20      -0.0268385
      222.0000      224738.10      287548.20      0.0308318
      225.0000      236732.20      287548.20      0.0487951
      228.0000      241548.20      287548.20      0.0324660
      231.0000      230219.70      287548.20      -0.0085426
      234.0000      221798.40      287548.20      -0.0330325
      237.0000      226757.10      287548.20      0.0175989
      240.0000      227160.80      287548.20      0.0276872
      243.0000      221100.20      287548.20      -0.0188782
      246.0000      206728.20      287548.20      -0.0724663
      249.0000      201829.80      287548.20      -0.1015462
      252.0000      198758.40      287548.20      -0.1267538
      255.0000      199239.00      287548.20      -0.1226235
      258.0000      201109.40      287548.20      -0.1116377
      261.0000      200433.10      287548.20      -0.1157576
      264.0000      202298.50      287548.20      -0.0950880
      267.0000      216764.10      287548.20      -0.0634805
      270.0000      220051.30      287548.20      -0.0581792
      273.0000      229444.00      287548.20      -0.0306486
      276.0000      233908.50      287548.20      -0.0310908
      279.0000      235412.10      287548.20      -0.0162410
      282.0000      240804.40      287548.20      -0.0131844
      285.0000      246167.60      287548.20      0.0041508
      288.0000      236483.20      287548.20      -0.0127347
      291.0000      239181.90      287548.20      -0.0253892
      294.0000      243248.60      287548.20      -0.0162557
      297.0000      242321.70      287548.20      -0.0230724
      300.0000      252755.10      287548.20      -0.0207957
      303.0000      251345.00      287548.20      -0.0293254
      306.0000      277583.30      287548.20      0.0670920
      309.0000      296797.70      287548.20      0.1037279
      312.0000      308526.40      287548.20      0.1634316
      315.0000      317144.90      287548.20      0.1584745
      318.0000      309085.60      287548.20      0.1258737
      321.0000      315577.60      287548.20      0.1276661
      324.0000      330867.20      287548.20      0.1520454
      327.0000      329488.80      287548.20      0.1251799
      330.0000      333528.60      287548.20      0.1464000
      333.0000      339312.20      287548.20      0.1347378
      336.0000      335937.20      287548.20      0.0920641
      339.0000      312630.70      287548.20      -0.0024687
      342.0000      310369.10      287548.20      -0.0201056
      345.0000      312185.60      287548.20      -0.0413425
      348.0000      317427.40      287548.20      -0.0405266
      351.0000      316620.00      287548.20      -0.0493824
      354.0000      310722.30      287548.20      -0.0484964
      357.0000      322158.40      287548.20      -0.0366139

       15     121       19.5900     54.0000      1.00000      0.00000
      0.0000      263060.70      252394.50      -0.0028178
      3.0000      281308.10      252394.50      0.0096945
      6.0000      285637.70      252394.50      0.0284425
      9.0000      291860.70      252394.50      0.0437766
      12.0000      298779.50      252394.50      0.0498506
      15.0000      289717.40      252394.50      0.0203304
      18.0000      284692.40      252394.50      0.0001992
      21.0000      265606.80      252394.50      -0.0850615
      24.0000      265790.00      252394.50      -0.1004925
      27.0000      262576.70      252394.50      -0.0871852
      30.0000      275181.50      252394.50      -0.0637588
      33.0000      307238.60      252394.50      0.0132990
      36.0000      280871.40      252394.50      -0.0733286
      39.0000      296941.90      252394.50      -0.0197065
      42.0000      321651.60      252394.50      0.0654161
      45.0000      319183.00      252394.50      0.0629069
      48.0000      313835.50      252394.50      0.0555937
      51.0000      309784.70      252394.50      0.0398803
      54.0000      307322.00      252394.50      0.0309028
      57.0000      319437.50      252394.50      0.0560041
      60.0000      320445.60      252394.50      0.0574863
      63.0000      304885.40      252394.50      -0.0002187
      66.0000      274795.40      252394.50      -0.0837253
      69.0000      278769.60      252394.50      -0.0781058
      72.0000      275179.30      252394.50      -0.0698454
      75.0000      255806.60      252394.50      -0.1129580
      78.0000      243177.30      252394.50      -0.1317187
      81.0000      245732.40      252394.50      -0.1355426
      84.0000      257038.60      252394.50      -0.1060759
      87.0000      273086.80      252394.50      -0.0461503
      90.0000      272206.60      252394.50      -0.0429259
      93.0000      284119.10      252394.50      0.0124882
      96.0000      273654.20      252394.50      -0.0116881
      99.0000      275623.70      252394.50      -0.0162153
      102.0000      289347.10      252394.50      0.0056588
      105.0000      280716.90      252394.50      0.0028370
      108.0000      286757.70      252394.50      0.0229890
      111.0000      268976.30      252394.50      -0.0307154
      114.0000      268976.30      252394.50      -0.0370675
      117.0000      256788.30      252394.50      -0.0543539
      120.0000      266801.50      252394.50      -0.0324164
      123.0000      281178.30      252394.50      -0.0021682
      126.0000      284412.20      252394.50      0.0479557
      129.0000      297673.30      252394.50      0.1143553
      132.0000      296861.90      252394.50      0.1346275
      135.0000      299585.60      252394.50      0.1362684
      138.0000      293578.60      252394.50      0.1094155
      141.0000      295445.50      252394.50      0.1209091
      144.0000      292595.70      252394.50      0.1042964
      147.0000      288407.20      252394.50      0.1101180
      150.0000      281146.30      252394.50      0.1084637
      153.0000      280100.10      252394.50      0.1155563
      156.0000      263556.00      252394.50      0.0634520
      159.0000      255259.40      252394.50      -0.0072324
      162.0000      244061.10      252394.50      -0.0499077
      165.0000      225144.70      252394.50      -0.0954022
      168.0000      224246.40      252394.50      -0.0874691
      171.0000      222982.20      252394.50      -0.0830044
      174.0000      239585.30      252394.50      -0.0109245
      177.0000      244307.20      252394.50      -0.0056512
      180.0000      240646.80      252394.50      -0.0028178
      183.0000      231291.80      252394.50      0.0096945
      186.0000      236718.20      252394.50      0.0284425
      189.0000      238815.50      252394.50      0.0437766
      192.0000      236012.30      252394.50      0.0498506
      195.0000      229855.30      252394.50      0.0203304
      198.0000      224588.10      252394.50      0.0001992
      201.0000      201140.80      252394.50      -0.0850615
      204.0000      193856.80      252394.50      -0.1004925
      207.0000      201798.70      252394.50      -0.0871852
      210.0000      202070.20      252394.50      -0.0637588
      213.0000      211144.00      252394.50      0.0132990
      216.0000      192665.30      252394.50      -0.0733286
      219.0000      203365.20      252394.50      -0.0197065
      222.0000      221127.70      252394.50      0.0654161
      225.0000      221127.70      252394.50      0.0629069
      228.0000      221127.70      252394.50      0.0555938
      231.0000      216644.40      252394.50      0.0398803
      234.0000      213881.70      252394.50      0.0309028
      237.0000      215058.30      252394.50      0.0560041
      240.0000      214232.10      252394.50      0.0574863
      243.0000      200509.00      252394.50      -0.0002187
      246.0000      186418.10      252394.50      -0.0837253
      249.0000      185372.70      252394.50      -0.0781058
      252.0000      190771.20      252394.50      -0.0698453
      255.0000      186115.20      252394.50      -0.1129580
      258.0000      186866.50      252394.50      -0.1317187
      261.0000      183114.30      252394.50      -0.1355427
      264.0000      186945.60      252394.50      -0.1060759
      267.0000      200035.60      252394.50      -0.0461503
      270.0000      201791.30      252394.50      -0.0429259
      273.0000      216119.90      252394.50      0.0124882
      276.0000      213604.20      252394.50      -0.0116882
      279.0000      210287.00      252394.50      -0.0162153
      282.0000      209389.60      252394.50      0.0056588
      285.0000      214842.10      252394.50      0.0028370
      288.0000      219135.60      252394.50      0.0229890
      291.0000      210092.60      252394.50      -0.0307154
      294.0000      207785.60      252394.50      -0.0370676
      297.0000      210438.80      252394.50      -0.0543539
      300.0000      212735.10      252394.50      -0.0324164
      303.0000      215173.20      252394.50      -0.0021682
      306.0000      235916.10      252394.50      0.0479557
      309.0000      256054.10      252394.50      0.1143552
      312.0000      267463.80      252394.50      0.1346275
      315.0000      267367.70      252394.50      0.1362684
      318.0000      261666.30      252394.50      0.1094155
      321.0000      267161.50      252394.50      0.1209091
      324.0000      263558.50      252394.50      0.1042964
      327.0000      272387.50      252394.50      0.1101180
      330.0000      280879.70      252394.50      0.1084637
      333.0000      287985.00      252394.50      0.1155563
      336.0000      280627.90      252394.50      0.0634520
      339.0000      254646.10      252394.50      -0.0072324
      342.0000      246220.90      252394.50      -0.0499077
      345.0000      244833.30      252394.50      -0.0954022
      348.0000      252905.40      252394.50      -0.0874691
      351.0000      259763.20      252394.50      -0.0830044
      354.0000      284550.70      252394.50      -0.0109245
      357.0000      285151.40      252394.50      -0.0056512

       16     121       19.5900     57.0000      1.00000      0.00000
      0.0000      222339.40      205109.70      0.0175366
      3.0000      218270.00      205109.70      0.0023623
      6.0000      227554.10      205109.70      0.0094554
      9.0000      227554.10      205109.70      0.0363044
      12.0000      241014.80      205109.70      0.0552319
      15.0000      234287.40      205109.70      0.0186423
      18.0000      224786.40      205109.70      -0.0268486
      21.0000      211641.90      205109.70      -0.0658915
      24.0000      206997.50      205109.70      -0.1042983
      27.0000      220108.50      205109.70      -0.0594674
      30.0000      238496.90      205109.70      -0.0092659
      33.0000      238084.10      205109.70      -0.0205261
      36.0000      237637.60      205109.70      -0.0176924
      39.0000      250913.80      205109.70      -0.0023318
      42.0000      254332.40      205109.70      0.0360007
      45.0000      252301.80      205109.70      0.0453396
      48.0000      261073.30      205109.70      0.0568509
      51.0000      255558.70      205109.70      0.0709125
      54.0000      256504.90      205109.70      0.0646446
      57.0000      249873.80      205109.70      0.0270104
      60.0000      248374.40      205109.70      0.0174420
      63.0000      239254.40      205109.70      0.0011289
      66.0000      227707.50      205109.70      -0.0346722
      69.0000      229074.50      205109.70      -0.0666298
      72.0000      231356.50      205109.70      -0.0474449
      75.0000      220644.90      205109.70      -0.0785512
      78.0000      202874.50      205109.70      -0.1226983
      81.0000      203588.70      205109.70      -0.1470416
      84.0000      212869.60      205109.70      -0.1023466
      87.0000      217694.00      205109.70      -0.0757701
      90.0000      227664.50      205109.70      -0.0499849
      93.0000      243170.50      205109.70      -0.0043969
      96.0000      229183.70      205109.70      -0.0209749
      99.0000      222241.40      205109.70      -0.0565473
      102.0000      224866.70      205109.70      -0.0464584
      105.0000      228949.60      205109.70      -0.0378367
      108.0000      223207.20      205109.70      -0.0381069
      111.0000      207846.10      205109.70      -0.0948480
      114.0000      213232.10      205109.70      -0.0910732
      117.0000      204364.80      205109.70      -0.1277726
      120.0000      218027.20      205109.70      -0.0646171
      123.0000      217591.00      205109.70      -0.0384337
      126.0000      236368.90      205109.70      0.0296439
      129.0000      245897.20      205109.70      0.0814903
      132.0000      261907.80      205109.70      0.1560998
      135.0000      270742.90      205109.70      0.1915497
      138.0000      261173.30      205109.70      0.1751485
      141.0000      257852.60      205109.70      0.1761683
      144.0000      254080.20      205109.70      0.1840994
      147.0000      243830.50      205109.70      0.1712330
      150.0000      243108.80      205109.70      0.1691318
      153.0000      236905.80      205109.70      0.1488951
      156.0000      224526.00      205109.70      0.0753465
      159.0000      204355.70      205109.70      -0.0061445
      162.0000      199989.20      205109.70      -0.0282376
      165.0000      193504.80      205109.70      -0.0710983
      168.0000      178591.70      205109.70      -0.1302271
      171.0000      176016.70      205109.70      -0.1022746
      174.0000      189254.20      205109.70      -0.0406988
      177.0000      188480.30      205109.70      -0.0195881
      180.0000      189387.40      205109.70      0.0175366
      183.0000      188286.60      205109.70      0.0023623
      186.0000      183760.90      205109.70      0.0094554
      189.0000      194463.90      205109.70      0.0363044
      192.0000      190753.70      205109.70      0.0552319
      195.0000      183175.30      205109.70      0.0186423
      198.0000      174429.40      205109.70      -0.0268486
      201.0000      170717.00      205109.70      -0.0658915
      204.0000      160477.00      205109.70      -0.1042983
      207.0000      166266.70      205109.70      -0.0594674
      210.0000      169955.60      205109.70      -0.0092659
      213.0000      166084.30      205109.70      -0.0205261
      216.0000      167086.60      205109.70      -0.0176924
      219.0000      162450.80      205109.70      -0.0023318
      222.0000      172740.60      205109.70      0.0360007
      225.0000      176872.10      205109.70      0.0453396
      228.0000      174102.20      205109.70      0.0568509
      231.0000      182115.50      205109.70      0.0709125
      234.0000      178787.20      205109.70      0.0646447
      237.0000      170248.60      205109.70      0.0270104
      240.0000      167566.30      205109.70      0.0174420
      243.0000      167858.80      205109.70      0.0011289
      246.0000      163401.00      205109.70      -0.0346722
      249.0000      151529.90      205109.70      -0.0666298
      252.0000      155872.90      205109.70      -0.0474449
      255.0000      152553.30      205109.70      -0.0785512
      258.0000      149816.20      205109.70      -0.1226983
      261.0000      141106.20      205109.70      -0.1470416
      264.0000      149227.00      205109.70      -0.1023466
      267.0000      154490.70      205109.70      -0.0757701
      270.0000      156004.40      205109.70      -0.0499849
      273.0000      160238.50      205109.70      -0.0043969
      276.0000      164508.20      205109.70      -0.0209749
      279.0000      157647.00      205109.70      -0.0565473
      282.0000      159311.90      205109.70      -0.0464584
      285.0000      159495.70      205109.70      -0.0378367
      288.0000      163895.10      205109.70      -0.0381069
      291.0000      156244.20      205109.70      -0.0948480
      294.0000      153966.20      205109.70      -0.0910732
      297.0000      148428.70      205109.70      -0.1277726
      300.0000      160653.70      205109.70      -0.0646171
      303.0000      171050.10      205109.70      -0.0384337
      306.0000      181359.00      205109.70      0.0296439
      309.0000      193467.50      205109.70      0.0814903
      312.0000      208836.60      205109.70      0.1560998
      315.0000      215910.20      205109.70      0.1915497
      318.0000      219531.70      205109.70      0.1751485
      321.0000      224576.00      205109.70      0.1761683
      324.0000      233038.10      205109.70      0.1840994
      327.0000      239682.60      205109.70      0.1712330
      330.0000      241850.80      205109.70      0.1691318
      333.0000      242067.00      205109.70      0.1488951
      336.0000      226075.50      205109.70      0.0753465
      339.0000      214530.50      205109.70      -0.0061445
      342.0000      211923.00      205109.70      -0.0282376
      345.0000      202260.30      205109.70      -0.0710982
      348.0000      194593.00      205109.70      -0.1302271
      351.0000      213275.90      205109.70      -0.1022746
      354.0000      229471.30      205109.70      -0.0406988
      357.0000      243987.50      205109.70      -0.0195881

       17     121       19.5900     60.0000      1.00000      0.00000
      0.0000      182272.60      174685.30      -0.0292260
      3.0000      175867.60      174685.30      -0.0540373
      6.0000      189507.40      174685.30      0.0079860
      9.0000      198313.90      174685.30      0.0237040
      12.0000      199824.20      174685.30      0.0097517
      15.0000      187397.80      174685.30      -0.0222886
      18.0000      182182.10      174685.30      -0.0358672
      21.0000      178674.20      174685.30      -0.0645912
      24.0000      181562.80      174685.30      0.1148958
      27.0000      174359.70      174685.30      -0.0743337
      30.0000      201943.50      174685.30      0.0183569
      33.0000      201516.50      174685.30      0.0374545
      36.0000      196924.10      174685.30      -0.0025059
      39.0000      201687.40      174685.30      0.0049509
      42.0000      205663.60      174685.30      0.0207780
      45.0000      207828.70      174685.30      0.0571348
      48.0000      208861.80      174685.30      0.0445921
      51.0000      206166.00      174685.30      0.0348521
      54.0000      207048.50      174685.30      0.0492352
      57.0000      205254.70      174685.30      0.0284625
      60.0000      207443.30      174685.30      0.0248650
      63.0000      197518.00      174685.30      -0.0107404
      66.0000      184811.50      174685.30      -0.0526237
      69.0000      189700.40      174685.30      -0.0456260
      72.0000      193536.00      174685.30      -0.0030505
      75.0000      184380.50      174685.30      -0.0662411
      78.0000      184380.50      174685.30      -0.0692697
      81.0000      171907.70      174685.30      -0.1121525
      84.0000      167049.80      174685.30      -0.0945118
      87.0000      173570.00      174685.30      -0.0834397
      90.0000      176811.50      174685.30      -0.0526778
      93.0000      189081.00      174685.30      -0.0184480
      96.0000      190852.00      174685.30      -0.0137706
      99.0000      178127.10      174685.30      -0.0444563
      102.0000      179414.50      174685.30      -0.0771943
      105.0000      176447.60      174685.30      -0.0812799
      108.0000      180953.10      174685.30      -0.0704658
      111.0000      170753.80      174685.30      -0.0982185
      114.0000      173057.80      174685.30      -0.0960511
      117.0000      171881.00      174685.30      -0.0867360
      120.0000      177707.00      174685.30      -0.0699072
      123.0000      185210.80      174685.30      -0.0499821
      126.0000      184378.90      174685.30      -0.0206368
      129.0000      189409.40      174685.30      0.0462405
      132.0000      207500.80      174685.30      0.1437985
      135.0000      215609.90      174685.30      0.2229459
      138.0000      214963.50      174685.30      0.1859434
      141.0000      224254.30      174685.30      0.2352490
      144.0000      214406.80      174685.30      0.2046690
      147.0000      219328.80      174685.30      0.2208087
      150.0000      211299.00      174685.30      0.1944574
      153.0000      203795.90      174685.30      0.1373721
      156.0000      179389.80      174685.30      0.0136933
      159.0000      175166.70      174685.30      -0.0269907
      162.0000      175166.70      174685.30      -0.0330196
      165.0000      167900.00      174685.30      -0.0679352
      168.0000      156134.10      174685.30      -0.1115793
      171.0000      155511.50      174685.30      -0.1235255
      174.0000      156786.80      174685.30      -0.0769874
      177.0000      160714.90      174685.30      -0.0509781
      180.0000      159101.60      174685.30      -0.0292260
      183.0000      157020.60      174685.30      -0.0540373
      186.0000      165716.30      174685.30      0.0079859
      189.0000      163330.30      174685.30      0.0237040
      192.0000      157602.00      174685.30      0.0097517
      195.0000      158047.00      174685.30      -0.0222886
      198.0000      158127.40      174685.30      -0.0358671
      201.0000      151724.20      174685.30      -0.0645912
      204.0000      207238.00      174685.30      0.1148958
      207.0000      151963.50      174685.30      -0.0743337
      210.0000      158551.70      174685.30      0.0183570
      213.0000      164797.40      174685.30      0.0374546
      216.0000      155600.50      174685.30      -0.0025058
      219.0000      153815.30      174685.30      0.0049509
      222.0000      155301.60      174685.30      0.0207780
      225.0000      164656.90      174685.30      0.0571348
      228.0000      159541.90      174685.30      0.0445921
      231.0000      158287.10      174685.30      0.0348521
      234.0000      161676.00      174685.30      0.0492352
      237.0000      156261.20      174685.30      0.0284625
      240.0000      153032.90      174685.30      0.0248650
      243.0000      149481.90      174685.30      -0.0107404
      246.0000      146204.60      174685.30      -0.0526237
      249.0000      144154.90      174685.30      -0.0456260
      252.0000      153845.50      174685.30      -0.0030505
      255.0000      141315.70      174685.30      -0.0662412
      258.0000      140063.60      174685.30      -0.0692696
      261.0000      136441.00      174685.30      -0.1121525
      264.0000      145388.00      174685.30      -0.0945118
      267.0000      143383.10      174685.30      -0.0834397
      270.0000      150001.60      174685.30      -0.0526778
      273.0000      150533.60      174685.30      -0.0184481
      276.0000      150352.60      174685.30      -0.0137706
      279.0000      150946.40      174685.30      -0.0444563
      282.0000      139705.70      174685.30      -0.0771943
      285.0000      140739.60      174685.30      -0.0812799
      288.0000      140343.90      174685.30      -0.0704658
      291.0000      140053.30      174685.30      -0.0982185
      294.0000      138836.10      174685.30      -0.0960512
      297.0000      142783.30      174685.30      -0.0867360
      300.0000      143272.20      174685.30      -0.0699071
      303.0000      143313.90      174685.30      -0.0499821
      306.0000      153519.40      174685.30      -0.0206368
      309.0000      170838.50      174685.30      0.0462405
      312.0000      186804.60      174685.30      0.1437986
      315.0000      205802.30      174685.30      0.2229459
      318.0000      194888.90      174685.30      0.1859434
      321.0000      203308.90      174685.30      0.2352490
      324.0000      202945.00      174685.30      0.2046689
      327.0000      204558.40      174685.30      0.2208087
      330.0000      204134.30      174685.30      0.1944574
      333.0000      192782.10      174685.30      0.1373721
      336.0000      174874.60      174685.30      0.0136933
      339.0000      165783.60      174685.30      -0.0269907
      342.0000      164563.90      174685.30      -0.0330196
      345.0000      160515.40      174685.30      -0.0679351
      348.0000      158060.00      174685.30      -0.1115793
      351.0000      155416.40      174685.30      -0.1235255
      354.0000      172453.00      174685.30      -0.0769874
      357.0000      179261.80      174685.30      -0.0509780

       18     121       19.5900     63.0000      1.00000      0.00000
      0.0000      153165.30      144447.10      -0.0425486
      3.0000      153479.40      144447.10      -0.0315419
      6.0000      156442.30      144447.10      -0.0231396
      9.0000      165928.90      144447.10      0.0316784
      12.0000      160697.10      144447.10      0.0142036
      15.0000      162113.30      144447.10      0.0065361
      18.0000      152093.80      144447.10      -0.0387650
      21.0000      153794.00      144447.10      0.2342835
      24.0000      156579.80      144447.10      -0.0278301
      27.0000      159227.70      144447.10      -0.0354421
      30.0000      164207.80      144447.10      0.0031872
      33.0000      163296.30      144447.10      0.0081944
      36.0000      164499.90      144447.10      0.0029627
      39.0000      159761.90      144447.10      -0.0157505
      42.0000      165565.80      144447.10      0.0308624
      45.0000      167998.30      144447.10      0.0501845
      48.0000      168864.60      144447.10      0.0399183
      51.0000      167331.70      144447.10      0.0426047
      54.0000      173734.00      144447.10      0.0497613
      57.0000      168552.70      144447.10      0.0494920
      60.0000      160995.60      144447.10      0.0262915
      63.0000      155593.40      144447.10      -0.0180486
      66.0000      151999.50      144447.10      -0.0496191
      69.0000      157565.60      144447.10      -0.0390936
      72.0000      161012.60      144447.10      -0.0021732
      75.0000      143760.90      144447.10      -0.0630180
      78.0000      140363.70      144447.10      -0.1074033
      81.0000      144305.80      144447.10      -0.0915316
      84.0000      136011.90      144447.10      -0.0899810
      87.0000      147218.20      144447.10      -0.0721804
      90.0000      150965.00      144447.10      -0.0376626
      93.0000      156367.60      144447.10      0.0012379
      96.0000      149259.40      144447.10      -0.0358624
      99.0000      142121.10      144447.10      -0.0629431
      102.0000      143651.60      144447.10      -0.0992210
      105.0000      145305.90      144447.10      -0.0594093
      108.0000      146710.60      144447.10      -0.0575568
      111.0000      146259.30      144447.10      -0.0557798
      114.0000      158095.00      144447.10      -0.0168451
      117.0000      144144.90      144447.10      -0.0684344
      120.0000      146899.00      144447.10      -0.0241257
      123.0000      146596.20      144447.10      -0.0322799
      126.0000      144975.80      144447.10      -0.0309690
      129.0000      144046.90      144447.10      -0.0162335
      132.0000      153544.80      144447.10      0.0633060
      135.0000      150438.80      144447.10      0.0844653
      138.0000      173227.40      144447.10      0.2072757
      141.0000      170533.10      144447.10      0.2126997
      144.0000      170828.60      144447.10      0.1904743
      147.0000      166669.60      144447.10      0.1702355
      150.0000      152467.90      144447.10      0.1094445
      153.0000      146969.10      144447.10      0.0321150
      156.0000      141538.60      144447.10      -0.0148441
      159.0000      139102.20      144447.10      -0.0372050
      162.0000      143688.30      144447.10      -0.0308066
      165.0000      137921.80      144447.10      -0.0440699
      168.0000      133903.70      144447.10      -0.0841919
      171.0000      137970.40      144447.10      -0.0465193
      174.0000      139440.60      144447.10      -0.0257720
      177.0000      135162.10      144447.10      -0.0370086
      180.0000      129801.80      144447.10      -0.0425486
      183.0000      132445.20      144447.10      -0.0315419
      186.0000      132016.90      144447.10      -0.0231397
      189.0000      138624.20      144447.10      0.0316784
      192.0000      138145.40      144447.10      0.0142036
      195.0000      134605.50      144447.10      0.0065361
      198.0000      130615.80      144447.10      -0.0387650
      201.0000      202469.80      144447.10      0.2342834
      204.0000      129202.40      144447.10      -0.0278301
      207.0000      124641.70      144447.10      -0.0354421
      210.0000      130486.80      144447.10      0.0031872
      213.0000      132247.20      144447.10      0.0081944
      216.0000      129513.50      144447.10      0.0029627
      219.0000      128136.40      144447.10      -0.0157504
      222.0000      135291.70      144447.10      0.0308623
      225.0000      137997.90      144447.10      0.0501845
      228.0000      134203.10      144447.10      0.0399183
      231.0000      135788.10      144447.10      0.0426047
      234.0000      132023.00      144447.10      0.0497613
      237.0000      135827.70      144447.10      0.0494920
      240.0000      135602.90      144447.10      0.0262914
      243.0000      128125.30      144447.10      -0.0180486
      246.0000      122523.60      144447.10      -0.0496191
      249.0000      120366.30      144447.10      -0.0390935
      252.0000      126811.00      144447.10      -0.0021732
      255.0000      124919.50      144447.10      -0.0630179
      258.0000      115923.40      144447.10      -0.1074032
      261.0000      116532.20      144447.10      -0.0915317
      264.0000      123594.90      144447.10      -0.0899810
      267.0000      118670.90      144447.10      -0.0721804
      270.0000      124314.00      144447.10      -0.0376626
      273.0000      129722.80      144447.10      0.0012380
      276.0000      125852.30      144447.10      -0.0358625
      279.0000      124678.10      144447.10      -0.0629431
      282.0000      113733.20      144447.10      -0.0992210
      285.0000      122675.90      144447.10      -0.0594093
      288.0000      121874.30      144447.10      -0.0575569
      291.0000      122681.80      144447.10      -0.0557798
      294.0000      122615.50      144447.10      -0.0168451
      297.0000      121146.40      144447.10      -0.0684344
      300.0000      130595.30      144447.10      -0.0241257
      303.0000      128759.50      144447.10      -0.0322799
      306.0000      130695.50      144447.10      -0.0309690
      309.0000      135713.00      144447.10      -0.0162335
      312.0000      148912.00      144447.10      0.0633060
      315.0000      157934.60      144447.10      0.0844653
      318.0000      170842.20      144447.10      0.2072756
      321.0000      175367.80      144447.10      0.2126997
      324.0000      169374.70      144447.10      0.1904743
      327.0000      168244.60      144447.10      0.1702355
      330.0000      165537.70      144447.10      0.1094445
      333.0000      149499.60      144447.10      0.0321150
      336.0000      142009.00      144447.10      -0.0148441
      339.0000      138587.60      144447.10      -0.0372050
      342.0000      136339.80      144447.10      -0.0308065
      345.0000      139097.50      144447.10      -0.0440698
      348.0000      132059.10      144447.10      -0.0841919
      351.0000      139791.00      144447.10      -0.0465193
      354.0000      145341.90      144447.10      -0.0257720
      357.0000      147533.60      144447.10      -0.0370085

       19     121       19.5900     66.0000      1.00000      0.00000
      0.0000      124429.30      116026.00      -0.5069172
      3.0000      120090.60      116026.00      -0.0243864
      6.0000      126680.70      116026.00      0.0051096
      9.0000      127857.90      116026.00      0.0065322
      12.0000      131375.60      116026.00      0.0377617
      15.0000      135422.00      116026.00      0.0544290
      18.0000      126449.60      116026.00      0.0206610
      21.0000      123539.70      116026.00      -0.0034432
      24.0000      123273.70      116026.00      0.0094490
      27.0000      121569.30      116026.00      -0.0019916
      30.0000      127609.30      116026.00      0.0257688
      33.0000      130111.00      116026.00      0.0608090
      36.0000      124758.90      116026.00      0.0002769
      39.0000      123549.90      116026.00      -0.0059940
      42.0000      129421.70      116026.00      0.0204897
      45.0000      138045.10      116026.00      0.1211917
      48.0000      145254.00      116026.00      0.1514069
      51.0000      139620.60      116026.00      0.1304675
      54.0000      138467.30      116026.00      0.1092903
      57.0000      141705.20      116026.00      0.1145354
      60.0000      133148.00      116026.00      0.0661601
      63.0000      123412.30      116026.00      0.0046944
      66.0000      116421.40      116026.00      -0.0506567
      69.0000      118355.90      116026.00      -0.0264114
      72.0000      121857.20      116026.00      -0.0034085
      75.0000      116551.60      116026.00      -0.0500960
      78.0000      109362.70      116026.00      -0.0883634
      81.0000      109661.60      116026.00      -0.0945682
      84.0000      108858.80      116026.00      -0.0744438
      87.0000      120010.50      116026.00      -0.0207684
      90.0000      119600.40      116026.00      -0.0276901
      93.0000      117331.70      116026.00      -0.0240534
      96.0000      115169.50      116026.00      -0.0600463
      99.0000      113565.70      116026.00      -0.0704272
      102.0000      113775.70      116026.00      -0.0730680
      105.0000      113760.80      116026.00      -0.0797275
      108.0000      118750.30      116026.00      -0.0360864
      111.0000      121153.00      116026.00      0.0063494
      114.0000      118640.70      116026.00      -0.0352799
      117.0000      117148.90      116026.00      -0.0814083
      120.0000      120296.10      116026.00      -0.0042952
      123.0000      123465.10      116026.00      0.0144131
      126.0000      115060.10      116026.00      -0.0230967
      129.0000      113844.80      116026.00      -0.0555860
      132.0000      112396.50      116026.00      -0.0325345
      135.0000      122688.30      116026.00      0.0334825
      138.0000      133118.60      116026.00      0.1534594
      141.0000      134946.60      116026.00      0.1736859
      144.0000      131699.40      116026.00      0.1718399
      147.0000      124308.90      116026.00      0.1163574
      150.0000      115952.20      116026.00      -0.0245527
      153.0000      107954.50      116026.00      -0.0435857
      156.0000      108924.40      116026.00      -0.0350294
      159.0000      111313.50      116026.00      -0.0270899
      162.0000      114766.20      116026.00      0.0798762
      165.0000      110487.80      116026.00      -0.0273392
      168.0000      111532.30      116026.00      -0.0392886
      171.0000      112691.40      116026.00      0.0709777
      174.0000      113111.00      116026.00      -0.0015488
      177.0000      112736.80      116026.00      -0.0052803
      180.0000      768.40      116026.00      -0.5069172
      183.0000      109640.90      116026.00      -0.0243864
      186.0000      110185.30      116026.00      0.0051096
      189.0000      109243.60      116026.00      0.0065323
      192.0000      112747.10      116026.00      0.0377617
      195.0000      112645.60      116026.00      0.0544290
      198.0000      112659.60      116026.00      0.0206610
      201.0000      109651.90      116026.00      -0.0034432
      204.0000      112339.70      116026.00      0.0094490
      207.0000      111031.60      116026.00      -0.0019916
      210.0000      111604.10      116026.00      0.0257688
      213.0000      116656.70      116026.00      0.0608090
      216.0000      107987.90      116026.00      0.0002768
      219.0000      107383.70      116026.00      -0.0059940
      222.0000      107814.20      116026.00      0.0204897
      225.0000      121594.10      116026.00      0.1211917
      228.0000      121659.90      116026.00      0.1514069
      231.0000      121642.40      116026.00      0.1304676
      234.0000      117865.00      116026.00      0.1092903
      237.0000      115992.60      116026.00      0.1145354
      240.0000      112718.90      116026.00      0.0661601
      243.0000      107724.50      116026.00      0.0046944
      246.0000      101755.30      116026.00      -0.0506567
      249.0000      105043.60      116026.00      -0.0264114
      252.0000      106754.30      116026.00      -0.0034085
      255.0000      101257.00      116026.00      -0.0500960
      258.0000      99173.10      116026.00      -0.0883634
      261.0000      97495.00      116026.00      -0.0945682
      264.0000      102357.60      116026.00      -0.0744438
      267.0000      104029.70      116026.00      -0.0207684
      270.0000      102839.50      116026.00      -0.0276901
      273.0000      105550.60      116026.00      -0.0240534
      276.0000      99726.10      116026.00      -0.0600463
      279.0000      98907.20      116026.00      -0.0704272
      282.0000      98159.00      116026.00      -0.0730680
      285.0000      96756.40      116026.00      -0.0797275
      288.0000      101757.60      116026.00      -0.0360864
      291.0000      108901.90      116026.00      0.0063493
      294.0000      102199.00      116026.00      -0.0352799
      297.0000      93521.10      116026.00      -0.0814082
      300.0000      107783.40      116026.00      -0.0042952
      303.0000      109141.10      116026.00      0.0144131
      306.0000      109006.60      116026.00      -0.0230967
      309.0000      103109.90      116026.00      -0.0555860
      312.0000      110052.50      116026.00      -0.0325345
      315.0000      115330.80      116026.00      0.0334825
      318.0000      132970.50      116026.00      0.1534594
      321.0000      136328.90      116026.00      0.1736859
      324.0000      139795.00      116026.00      0.1718399
      327.0000      134987.70      116026.00      0.1163574
      330.0000      110794.90      116026.00      -0.0245527
      333.0000      115270.90      116026.00      -0.0435857
      336.0000      116929.20      116026.00      -0.0350294
      339.0000      116929.20      116026.00      -0.0270899
      342.0000      140328.50      116026.00      0.0798762
      345.0000      119227.20      116026.00      -0.0273392
      348.0000      115794.70      116026.00      -0.0392886
      351.0000      143469.70      116026.00      0.0709777
      354.0000      125317.30      116026.00      -0.0015488
      357.0000      125742.10      116026.00      -0.0052803

       20     121       19.5900     69.0000      1.00000      0.00000
      0.0000      122617.40      92322.60      0.0569822
      3.0000      96889.60      92322.60      -0.0620024
      6.0000      115745.10      92322.60      0.0447285
      9.0000      102062.80      92322.60      -0.0189696
      12.0000      103364.70      92322.60      -0.0004326
      15.0000      105955.30      92322.60      0.0471287
      18.0000      105974.00      92322.60      0.0408897
      21.0000      106798.60      92322.60      0.0598088
      24.0000      105060.10      92322.60      0.0639299
      27.0000      101159.10      92322.60      0.0255935
      30.0000      97973.30      92322.60      0.0256703
      33.0000      98752.70      92322.60      0.0085901
      36.0000      99281.40      92322.60      -0.0068077
      39.0000      94983.90      92322.60      -0.0276209
      42.0000      100078.10      92322.60      0.0065802
      45.0000      104483.70      92322.60      0.0612304
      48.0000      105086.80      92322.60      0.0638112
      51.0000      101922.00      92322.60      0.0582716
      54.0000      103728.30      92322.60      0.0661478
      57.0000      112152.30      92322.60      0.1093097
      60.0000      103591.50      92322.60      0.0495170
      63.0000      95117.00      92322.60      -0.0342911
      66.0000      89405.50      92322.60      -0.0636811
      69.0000      93881.80      92322.60      -0.0331677
      72.0000      90275.00      92322.60      -0.0199420
      75.0000      91923.30      92322.60      -0.0146808
      78.0000      94942.50      92322.60      -0.0048694
      81.0000      95352.70      92322.60      -0.0122608
      84.0000      91381.40      92322.60      -0.0260801
      87.0000      92364.50      92322.60      -0.0028030
      90.0000      91408.00      92322.60      0.0024640
      93.0000      88970.10      92322.60      -0.0692868
      96.0000      85289.50      92322.60      -0.0794580
      99.0000      92279.60      92322.60      -0.0682050
      102.0000      88334.30      92322.60      -0.0777968
      105.0000      105671.90      92322.60      0.0377011
      108.0000      93260.10      92322.60      -0.0094735
      111.0000      91141.40      92322.60      -0.0326781
      114.0000      88663.40      92322.60      -0.0573984
      117.0000      90428.70      92322.60      -0.0578200
      120.0000      92021.80      92322.60      -0.0311842
      123.0000      89796.40      92322.60      -0.0303880
      126.0000      87931.30      92322.60      -0.0443560
      129.0000      89280.10      92322.60      -0.0495044
      132.0000      90419.20      92322.60      -0.0358566
      135.0000      88715.80      92322.60      -0.0199352
      138.0000      95870.00      92322.60      0.0672339
      141.0000      96672.70      92322.60      0.1006673
      144.0000      94686.80      92322.60      0.0681914
      147.0000      91225.30      92322.60      0.0421041
      150.0000      82803.50      92322.60      -0.0542581
      153.0000      81702.90      92322.60      -0.0583448
      156.0000      85179.30      92322.60      -0.0389816
      159.0000      85179.30      92322.60      -0.0068478
      162.0000      87490.30      92322.60      -0.0199373
      165.0000      84066.20      92322.60      -0.0232435
      168.0000      83089.10      92322.60      -0.0219872
      171.0000      85871.90      92322.60      -0.0008224
      174.0000      88908.80      92322.60      0.0307348
      177.0000      94182.50      92322.60      0.0795420
      180.0000      86515.40      92322.60      0.0569822
      183.0000      85961.70      92322.60      -0.0620024
      186.0000      88719.80      92322.60      0.0447285
      189.0000      88221.00      92322.60      -0.0189696
      192.0000      89869.90      92322.60      -0.0004326
      195.0000      95537.30      92322.60      0.0471287
      198.0000      93896.70      92322.60      0.0408897
      201.0000      96003.10      92322.60      0.0598088
      204.0000      97684.00      92322.60      0.0639299
      207.0000      93785.90      92322.60      0.0255935
      210.0000      96053.90      92322.60      0.0256703
      213.0000      91952.70      92322.60      0.0085901
      216.0000      88368.10      92322.60      -0.0068077
      219.0000      88020.20      92322.60      -0.0276209
      222.0000      89181.50      92322.60      0.0065802
      225.0000      94493.10      92322.60      0.0612304
      228.0000      94002.50      92322.60      0.0638112
      231.0000      95418.80      92322.60      0.0582716
      234.0000      94817.50      92322.60      0.0661478
      237.0000      94505.00      92322.60      0.1093097
      240.0000      91284.10      92322.60      0.0495170
      243.0000      83850.00      92322.60      -0.0342911
      246.0000      83533.30      92322.60      -0.0636811
      249.0000      84545.50      92322.60      -0.0331677
      252.0000      89860.20      92322.60      -0.0199421
      255.0000      89013.10      92322.60      -0.0146808
      258.0000      87704.50      92322.60      -0.0048694
      261.0000      85765.10      92322.60      -0.0122609
      264.0000      86759.40      92322.60      -0.0260800
      267.0000      89716.50      92322.60      -0.0028030
      270.0000      91320.40      92322.60      0.0024641
      273.0000      80740.80      92322.60      -0.0692868
      276.0000      82218.00      92322.60      -0.0794580
      279.0000      77414.30      92322.60      -0.0682050
      282.0000      79277.80      92322.60      -0.0777968
      285.0000      83025.60      92322.60      0.0377011
      288.0000      86355.40      92322.60      -0.0094735
      291.0000      84119.90      92322.60      -0.0326781
      294.0000      81978.50      92322.60      -0.0573984
      297.0000      80063.50      92322.60      -0.0578200
      300.0000      83140.00      92322.60      -0.0311842
      303.0000      85348.60      92322.60      -0.0303880
      306.0000      84588.50      92322.60      -0.0443560
      309.0000      82254.00      92322.60      -0.0495045
      312.0000      83498.00      92322.60      -0.0358566
      315.0000      87987.10      92322.60      -0.0199352
      318.0000      96496.80      92322.60      0.0672339
      321.0000      101686.60      92322.60      0.1006674
      324.0000      97795.30      92322.60      0.0681914
      327.0000      96555.90      92322.60      0.0421041
      330.0000      87616.40      92322.60      -0.0542581
      333.0000      88005.50      92322.60      -0.0583449
      336.0000      88005.50      92322.60      -0.0389816
      339.0000      93894.80      92322.60      -0.0068479
      342.0000      89174.10      92322.60      -0.0199374
      345.0000      92146.50      92322.60      -0.0232435
      348.0000      93453.90      92322.60      -0.0219872
      351.0000      94533.40      92322.60      -0.0008224
      354.0000      97269.40      92322.60      0.0307348
      357.0000      100865.00      92322.60      0.0795420

