      20    2420    0     datakind beginning-row linenumbers
MSCD Version 1.00 Yufeng Chen and Michel A Van Hove
Lawrence Berkeley National Laboratory (LBNL), Berkeley, CA 94720
Copyright (c) Van Hove Group 1997. All rights reserved
--------------------------------------------------------------
angle-resolved photoemission extended fine structure (ARPEFS)
experimental data for Fe 2p3/2 from Fe on STO(100)  excited with hv=1810eV
provided by Pancotti et al. (LNLS in 9, June 2010)
   initial angular momentum (l) = 1
   photon polarization angle (polar, azimuth) = (  30.0,   0.0 ) (deg)
   sample temperature = 300 K
   photoemission angular scan curves
     (curve point theta phi weightc weighte//k intensity chiexp)
      20     2420       1       20     121     2420
       1     121       19.5900     12.0000      1.00000      0.00000
      0.0000      434899.70      442551.80      -0.0429479
      3.0000      434422.50      442551.80      -0.0408819
      6.0000      455672.40      442551.80      -0.0027172
      9.0000      474952.30      442551.80      0.0010350
      12.0000      477491.40      442551.80      0.0135370
      15.0000      484849.50      442551.80      0.0271358
      18.0000      499418.30      442551.80      0.0350880
      21.0000      504415.20      442551.80      0.0526225
      24.0000      501873.10      442551.80      0.0545254
      27.0000      505880.40      442551.80      0.0443124
      30.0000      497772.00      442551.80      0.0254698
      33.0000      507072.50      442551.80      0.0420287
      36.0000      487408.10      442551.80      0.0213059
      39.0000      498708.80      442551.80      0.0001154
      42.0000      496586.30      442551.80      0.0295998
      45.0000      489339.00      442551.80      0.0093203
      48.0000      495901.60      442551.80      -0.0025048
      51.0000      479755.30      442551.80      -0.0074129
      54.0000      495772.60      442551.80      0.0077541
      57.0000      499644.40      442551.80      0.0202100
      60.0000      528223.40      442551.80      0.0451489
      63.0000      531668.40      442551.80      0.0263001
      66.0000      528055.50      442551.80      0.1593065
      69.0000      533765.50      442551.80      0.0523900
      72.0000      547643.60      442551.80      0.0707920
      75.0000      532874.10      442551.80      0.0668950
      78.0000      546138.30      442551.80      0.0829934
      81.0000      508592.60      442551.80      0.0395848
      84.0000      518355.40      442551.80      0.0547368
      87.0000      491780.50      442551.80      0.0327800
      90.0000      508214.10      442551.80      0.0495534
      93.0000      483101.60      442551.80      0.0017077
      96.0000      486775.20      442551.80      0.0166026
      99.0000      453147.90      442551.80      -0.0306924
      102.0000      454267.70      442551.80      -0.0294752
      105.0000      436288.80      442551.80      -0.0446394
      108.0000      426031.70      442551.80      -0.0984642
      111.0000      453129.10      442551.80      -0.0527538
      114.0000      433990.90      442551.80      -0.0316049
      117.0000      437845.70      442551.80      -0.0455229
      120.0000      440607.40      442551.80      -0.0505020
      123.0000      436357.50      442551.80      -0.0612294
      126.0000      431216.70      442551.80      -0.0641180
      129.0000      421889.50      442551.80      -0.0568064
      132.0000      418889.70      442551.80      -0.0455223
      135.0000      427756.20      442551.80      -0.0480135
      138.0000      431977.20      442551.80      -0.0390171
      141.0000      438210.40      442551.80      -0.0199787
      144.0000      431319.10      442551.80      -0.0449839
      147.0000      431319.10      442551.80      -0.1146970
      150.0000      412730.10      442551.80      -0.0620527
      153.0000      434973.80      442551.80      -0.0016288
      156.0000      432942.70      442551.80      -0.0271020
      159.0000      419997.00      442551.80      -0.0417808
      162.0000      415229.40      442551.80      -0.0301755
      165.0000      419489.20      442551.80      -0.0097371
      168.0000      430070.30      442551.80      0.0233853
      171.0000      411998.90      442551.80      -0.0264640
      174.0000      429486.20      442551.80      0.0216432
      177.0000      446303.50      442551.80      0.0488468
      180.0000      437342.10      442551.80      -0.0429478
      183.0000      438985.80      442551.80      -0.0408819
      186.0000      452242.40      442551.80      -0.0027172
      189.0000      437696.20      442551.80      0.0010350
      192.0000      445367.30      442551.80      0.0135370
      195.0000      449633.90      442551.80      0.0271357
      198.0000      442789.80      442551.80      0.0350880
      201.0000      452274.50      442551.80      0.0526225
      204.0000      454967.10      442551.80      0.0545254
      207.0000      441847.80      442551.80      0.0443124
      210.0000      431861.80      442551.80      0.0254698
      213.0000      436554.70      442551.80      0.0420287
      216.0000      434714.70      442551.80      0.0213059
      219.0000      406453.60      442551.80      0.0001154
      222.0000      431236.40      442551.80      0.0295998
      225.0000      419307.50      442551.80      0.0093203
      228.0000      402845.60      442551.80      -0.0025048
      231.0000      410930.50      442551.80      -0.0074129
      234.0000      408649.70      442551.80      0.0077541
      237.0000      414187.80      442551.80      0.0202100
      240.0000      409384.90      442551.80      0.0451489
      243.0000      389929.00      442551.80      0.0263001
      246.0000      498651.00      442551.80      0.1593065
      249.0000      406434.00      442551.80      0.0523900
      252.0000      408373.90      442551.80      0.0707920
      255.0000      415995.30      442551.80      0.0668950
      258.0000      416558.00      442551.80      0.0829934
      261.0000      411425.60      442551.80      0.0395848
      264.0000      414162.50      442551.80      0.0547368
      267.0000      417315.70      442551.80      0.0327799
      270.0000      415872.80      442551.80      0.0495534
      273.0000      397378.80      442551.80      0.0017077
      276.0000      405084.30      442551.80      0.0166026
      279.0000      394373.40      442551.80      -0.0306924
      282.0000      393461.50      442551.80      -0.0294752
      285.0000      395561.20      442551.80      -0.0446394
      288.0000      360461.90      442551.80      -0.0984642
      291.0000      373308.40      442551.80      -0.0527538
      294.0000      405732.50      442551.80      -0.0316049
      297.0000      390710.90      442551.80      -0.0455228
      300.0000      383795.10      442551.80      -0.0505020
      303.0000      378332.10      442551.80      -0.0612294
      306.0000      380030.70      442551.80      -0.0641180
      309.0000      393739.60      442551.80      -0.0568064
      312.0000      405320.80      442551.80      -0.0455222
      315.0000      395376.60      442551.80      -0.0480134
      318.0000      398903.00      442551.80      -0.0390171
      321.0000      408928.00      442551.80      -0.0199788
      324.0000      394747.20      442551.80      -0.0449839
      327.0000      337372.60      442551.80      -0.1146970
      330.0000      398179.20      442551.80      -0.0620527
      333.0000      428356.70      442551.80      -0.0016288
      336.0000      409541.90      442551.80      -0.0271020
      339.0000      410062.50      442551.80      -0.0417808
      342.0000      425250.00      442551.80      -0.0301756
      345.0000      439576.30      442551.80      -0.0097371
      348.0000      458876.60      442551.80      0.0233853
      351.0000      435011.40      442551.80      -0.0264641
      354.0000      460859.50      442551.80      0.0216433
      357.0000      469398.10      442551.80      0.0488468
      360.0000      437342.10      442551.80      -0.0429478
       2     121       19.5900     15.0000      1.00000      0.00000
      0.0000      457840.60      412793.20      -0.0886666
      3.0000      481405.10      412793.20      -0.0702118
      6.0000      484189.00      412793.20      -0.0495798
      9.0000      482758.00      412793.20      -0.0474228
      12.0000      508162.60      412793.20      -0.0136542
      15.0000      523052.40      412793.20      -0.0101084
      18.0000      536778.60      412793.20      0.0435231
      21.0000      540856.60      412793.20      0.0456008
      24.0000      557611.30      412793.20      0.0554096
      27.0000      556743.50      412793.20      0.0706573
      30.0000      559798.20      412793.20      0.0675570
      33.0000      547872.40      412793.20      0.0637515
      36.0000      547100.40      412793.20      0.0653802
      39.0000      537087.20      412793.20      0.0636569
      42.0000      516131.90      412793.20      0.0195667
      45.0000      511626.00      412793.20      0.0283433
      48.0000      526573.40      412793.20      0.0368969
      51.0000      513385.10      412793.20      0.0164452
      54.0000      512877.10      412793.20      0.0201570
      57.0000      529166.70      412793.20      0.0303520
      60.0000      534524.40      412793.20      0.0298175
      63.0000      540886.20      412793.20      0.0609708
      66.0000      555557.70      412793.20      0.0840130
      69.0000      544470.80      412793.20      0.0612736
      72.0000      560904.30      412793.20      0.0923660
      75.0000      549193.40      412793.20      0.0674548
      78.0000      525186.50      412793.20      0.0567599
      81.0000      516397.50      412793.20      0.0481278
      84.0000      505956.90      412793.20      0.0307334
      87.0000      471623.80      412793.20      -0.0050003
      90.0000      452971.70      412793.20      -0.0129841
      93.0000      442410.10      412793.20      -0.0330244
      96.0000      418712.00      412793.20      -0.0681421
      99.0000      416047.70      412793.20      -0.0916039
      102.0000      420090.80      412793.20      -0.0840621
      105.0000      427481.10      412793.20      -0.0386324
      108.0000      430737.90      412793.20      -0.0859627
      111.0000      430934.50      412793.20      -0.0506107
      114.0000      437754.20      412793.20      -0.0402828
      117.0000      435002.20      412793.20      -0.0668112
      120.0000      433406.20      412793.20      -0.0533535
      123.0000      436181.30      412793.20      -0.0359240
      126.0000      425073.40      412793.20      -0.0297988
      129.0000      418966.30      412793.20      -0.0360861
      132.0000      422189.70      412793.20      -0.0149364
      135.0000      428743.00      412793.20      -0.0118625
      138.0000      420772.40      412793.20      -0.0050324
      141.0000      415559.50      412793.20      -0.0241497
      144.0000      420811.90      412793.20      0.0069522
      147.0000      418647.40      412793.20      -0.0161501
      150.0000      421365.60      412793.20      0.0137214
      153.0000      417837.80      412793.20      0.0196370
      156.0000      409431.10      412793.20      0.0120303
      159.0000      400471.90      412793.20      -0.0163225
      162.0000      404934.60      412793.20      0.0087018
      165.0000      392684.70      412793.20      -0.0199169
      168.0000      379972.40      412793.20      -0.0274484
      171.0000      374576.00      412793.20      -0.0141735
      174.0000      373782.40      412793.20      -0.0242207
      177.0000      364564.60      412793.20      -0.0213817
      180.0000      366481.40      412793.20      -0.0886666
      183.0000      360799.60      412793.20      -0.0702118
      186.0000      371809.70      412793.20      -0.0495798
      189.0000      371653.40      412793.20      -0.0474228
      192.0000      375942.80      412793.20      -0.0136542
      195.0000      365065.00      412793.20      -0.0101084
      198.0000      391999.60      412793.20      0.0435231
      201.0000      387458.90      412793.20      0.0456008
      204.0000      379723.60      412793.20      0.0554096
      207.0000      388101.40      412793.20      0.0706573
      210.0000      380465.00      412793.20      0.0675570
      213.0000      382623.80      412793.20      0.0637515
      216.0000      380998.00      412793.20      0.0653802
      219.0000      383282.80      412793.20      0.0636569
      222.0000      363350.30      412793.20      0.0195667
      225.0000      369356.90      412793.20      0.0283433
      228.0000      362065.70      412793.20      0.0368969
      231.0000      353753.00      412793.20      0.0164452
      234.0000      353615.10      412793.20      0.0201570
      237.0000      346653.50      412793.20      0.0303520
      240.0000      339741.80      412793.20      0.0298175
      243.0000      353591.20      412793.20      0.0609708
      246.0000      356305.70      412793.20      0.0840130
      249.0000      345566.90      412793.20      0.0612736
      252.0000      352461.80      412793.20      0.0923660
      255.0000      340921.50      412793.20      0.0674548
      258.0000      347319.90      412793.20      0.0567599
      261.0000      344979.70      412793.20      0.0481278
      264.0000      338105.40      412793.20      0.0307334
      267.0000      335601.70      412793.20      -0.0050003
      270.0000      341017.40      412793.20      -0.0129840
      273.0000      333119.80      412793.20      -0.0330243
      276.0000      324573.70      412793.20      -0.0681421
      279.0000      309308.80      412793.20      -0.0916040
      282.0000      309920.40      412793.20      -0.0840621
      285.0000      333321.60      412793.20      -0.0386323
      288.0000      298214.40      412793.20      -0.0859628
      291.0000      320265.10      412793.20      -0.0506107
      294.0000      320994.60      412793.20      -0.0402828
      297.0000      304136.80      412793.20      -0.0668112
      300.0000      313320.50      412793.20      -0.0533535
      303.0000      322088.80      412793.20      -0.0359240
      306.0000      333962.00      412793.20      -0.0297988
      309.0000      333850.00      412793.20      -0.0360861
      312.0000      345454.70      412793.20      -0.0149364
      315.0000      342130.10      412793.20      -0.0118625
      318.0000      353160.80      412793.20      -0.0050325
      321.0000      344089.30      412793.20      -0.0241497
      324.0000      361883.30      412793.20      0.0069522
      327.0000      347605.60      412793.20      -0.0161502
      330.0000      367187.50      412793.20      0.0137214
      333.0000      375269.40      412793.20      0.0196370
      336.0000      378098.40      412793.20      0.0120303
      339.0000      366302.70      412793.20      -0.0163225
      342.0000      382141.30      412793.20      0.0087018
      345.0000      373418.70      412793.20      -0.0199169
      348.0000      381453.70      412793.20      -0.0274484
      351.0000      398988.50      412793.20      -0.0141735
      354.0000      394104.10      412793.20      -0.0242207
      357.0000      408179.50      412793.20      -0.0213817
      360.0000      366481.40      412793.20      -0.0886666
       3     121       19.5900     18.0000      1.00000      0.00000
      0.0000      452428.70      444703.10      -0.0348745
      3.0000      460843.60      444703.10      -0.0162072
      6.0000      428068.60      444703.10      -0.0771071
      9.0000      471662.00      444703.10      -0.0243888
      12.0000      522570.10      444703.10      0.0439626
      15.0000      489573.20      444703.10      0.0058305
      18.0000      539582.60      444703.10      0.0673860
      21.0000      582572.50      444703.10      0.0978714
      24.0000      576178.10      444703.10      0.0979783
      27.0000      527053.80      444703.10      0.0348209
      30.0000      530941.60      444703.10      0.0561341
      33.0000      567454.60      444703.10      0.0961954
      36.0000      508079.20      444703.10      0.0507996
      39.0000      538810.10      444703.10      0.0664137
      42.0000      550688.40      444703.10      0.0676659
      45.0000      523449.40      444703.10      0.0421364
      48.0000      475158.00      444703.10      -0.0186451
      51.0000      526905.50      444703.10      0.0182168
      54.0000      532680.20      444703.10      0.0391533
      57.0000      550393.70      444703.10      0.0377469
      60.0000      510207.20      444703.10      0.0065932
      63.0000      528027.20      444703.10      0.0102863
      66.0000      581827.80      444703.10      0.0550051
      69.0000      556430.80      444703.10      0.0482440
      72.0000      560921.90      444703.10      0.0361619
      75.0000      509950.00      444703.10      -0.0165766
      78.0000      469810.90      444703.10      -0.0591325
      81.0000      521748.60      444703.10      -0.0333191
      84.0000      480032.10      444703.10      -0.0721026
      87.0000      440081.60      444703.10      -0.1071055
      90.0000      439704.70      444703.10      -0.1152903
      93.0000      483646.80      444703.10      -0.0774016
      96.0000      472750.50      444703.10      -0.0861758
      99.0000      435237.20      444703.10      -0.1298569
      102.0000      461163.00      444703.10      -0.1077071
      105.0000      434731.30      444703.10      -0.1294770
      108.0000      481984.00      444703.10      -0.0756903
      111.0000      477284.60      444703.10      -0.0907876
      114.0000      516349.80      444703.10      -0.0364828
      117.0000      498507.10      444703.10      -0.0287028
      120.0000      477122.60      444703.10      -0.0399618
      123.0000      473186.00      444703.10      -0.0296469
      126.0000      432999.40      444703.10      -0.0596252
      129.0000      505663.60      444703.10      0.0400823
      132.0000      491814.80      444703.10      0.0429707
      135.0000      471583.30      444703.10      0.0178490
      138.0000      486869.20      444703.10      0.0574132
      141.0000      504666.60      444703.10      0.0745792
      144.0000      500453.00      444703.10      0.0656882
      147.0000      466080.50      444703.10      0.0404499
      150.0000      497887.30      444703.10      0.0767340
      153.0000      465013.60      444703.10      0.0594145
      156.0000      461549.70      444703.10      0.0527107
      159.0000      418994.20      444703.10      -0.0281604
      162.0000      461205.10      444703.10      0.0356143
      165.0000      442159.50      444703.10      0.0085124
      168.0000      457712.90      444703.10      0.0299684
      171.0000      415634.40      444703.10      -0.0226166
      174.0000      423337.10      444703.10      -0.0270040
      177.0000      397567.50      444703.10      -0.0483437
      180.0000      419898.10      444703.10      -0.0348745
      183.0000      428700.50      444703.10      -0.0162072
      186.0000      405821.90      444703.10      -0.0771071
      189.0000      412792.60      444703.10      -0.0243888
      192.0000      426753.50      444703.10      0.0439626
      195.0000      422081.20      444703.10      0.0058305
      198.0000      431154.10      444703.10      0.0673861
      201.0000      420958.70      444703.10      0.0978714
      204.0000      425302.00      444703.10      0.0979783
      207.0000      412222.20      444703.10      0.0348209
      210.0000      424791.40      444703.10      0.0561341
      213.0000      427109.50      444703.10      0.0961954
      216.0000      434811.00      444703.10      0.0507996
      219.0000      422378.00      444703.10      0.0664137
      222.0000      412957.10      444703.10      0.0676659
      225.0000      411719.50      444703.10      0.0421364
      228.0000      398936.90      444703.10      -0.0186451
      231.0000      387744.50      444703.10      0.0182168
      234.0000      397649.20      444703.10      0.0391533
      237.0000      382268.10      444703.10      0.0377469
      240.0000      385997.20      444703.10      0.0065932
      243.0000      374486.00      444703.10      0.0102863
      246.0000      367923.90      444703.10      0.0550051
      249.0000      379282.60      444703.10      0.0482440
      252.0000      365698.70      444703.10      0.0361619
      255.0000      361491.00      444703.10      -0.0165765
      258.0000      357322.50      444703.10      -0.0591325
      261.0000      338307.60      444703.10      -0.0333191
      264.0000      338307.60      444703.10      -0.0721026
      267.0000      340077.30      444703.10      -0.1071056
      270.0000      333505.60      444703.10      -0.1152903
      273.0000      328978.80      444703.10      -0.0774016
      276.0000      329611.60      444703.10      -0.0861758
      279.0000      324066.10      444703.10      -0.1298569
      282.0000      320981.50      444703.10      -0.1077071
      285.0000      323925.70      444703.10      -0.1294770
      288.0000      328499.50      444703.10      -0.0756903
      291.0000      320472.20      444703.10      -0.0907876
      294.0000      331371.70      444703.10      -0.0364828
      297.0000      350809.20      444703.10      -0.0287028
      300.0000      359042.20      444703.10      -0.0399618
      303.0000      370481.40      444703.10      -0.0296469
      306.0000      380174.00      444703.10      -0.0596252
      309.0000      399900.70      444703.10      0.0400824
      312.0000      414657.40      444703.10      0.0429707
      315.0000      413084.20      444703.10      0.0178490
      318.0000      433459.70      444703.10      0.0574131
      321.0000      433840.80      444703.10      0.0745792
      324.0000      432254.50      444703.10      0.0656882
      327.0000      444513.70      444703.10      0.0404499
      330.0000      448402.40      444703.10      0.0767340
      333.0000      467289.20      444703.10      0.0594145
      336.0000      468120.50      444703.10      0.0527107
      339.0000      442392.30      444703.10      -0.0281604
      342.0000      460371.30      444703.10      0.0356143
      345.0000      459101.50      444703.10      0.0085124
      348.0000      466367.10      444703.10      0.0299685
      351.0000      466703.90      444703.10      -0.0226166
      354.0000      458470.70      444703.10      -0.0270040
      357.0000      471583.70      444703.10      -0.0483436
      360.0000      419898.10      444703.10      -0.0348745
       4     121       19.5900     21.0000      1.00000      0.00000
      0.0000      439417.40      453209.70      -0.0511051
      3.0000      481213.40      453209.70      -0.0026602
      6.0000      496410.50      453209.70      -0.0436034
      9.0000      444833.90      453209.70      -0.0598745
      12.0000      445186.40      453209.70      -0.0724535
      15.0000      467179.10      453209.70      -0.0231074
      18.0000      493381.30      453209.70      -0.0080503
      21.0000      472076.90      453209.70      -0.0164112
      24.0000      532719.90      453209.70      0.0709122
      27.0000      535289.90      453209.70      0.0377459
      30.0000      487831.20      453209.70      -0.0204592
      33.0000      527504.50      453209.70      0.0628396
      36.0000      552740.20      453209.70      0.0408154
      39.0000      499556.80      453209.70      -0.0130859
      42.0000      480510.20      453209.70      -0.0009026
      45.0000      518342.80      453209.70      -0.0042662
      48.0000      494714.30      453209.70      0.0025037
      51.0000      514258.70      453209.70      -0.0055223
      54.0000      514258.70      453209.70      0.0304142
      57.0000      478706.20      453209.70      -0.0244781
      60.0000      551166.60      453209.70      0.0662402
      63.0000      529436.00      453209.70      0.0480864
      66.0000      525511.40      453209.70      0.0003754
      69.0000      525511.40      453209.70      0.0218566
      72.0000      524650.80      453209.70      0.0831355
      75.0000      465352.30      453209.70      -0.0255511
      78.0000      490151.00      453209.70      -0.0082580
      81.0000      461133.60      453209.70      -0.0274418
      84.0000      487618.00      453209.70      -0.0442295
      87.0000      484356.00      453209.70      0.0108018
      90.0000      491486.30      453209.70      -0.0380883
      93.0000      484206.60      453209.70      -0.0312061
      96.0000      465121.50      453209.70      -0.0756425
      99.0000      493269.60      453209.70      -0.0170209
      102.0000      471152.20      453209.70      -0.0521540
      105.0000      409854.90      453209.70      -0.1199911
      108.0000      497482.40      453209.70      0.0000552
      111.0000      488661.70      453209.70      0.0006567
      114.0000      462895.00      453209.70      -0.0826280
      117.0000      321279.20      453209.70      -0.1601444
      120.0000      441582.10      453209.70      -0.0690875
      123.0000      512443.30      453209.70      0.0439982
      126.0000      484698.60      453209.70      0.0277277
      129.0000      432572.90      453209.70      -0.0763597
      132.0000      478962.10      453209.70      0.0548499
      135.0000      457020.00      453209.70      -0.0374637
      138.0000      464239.70      453209.70      -0.0022760
      141.0000      494715.00      453209.70      0.0427833
      144.0000      510963.90      453209.70      0.0309290
      147.0000      459982.40      453209.70      -0.0006397
      150.0000      519354.20      453209.70      0.1055503
      153.0000      519354.20      453209.70      0.0896325
      156.0000      519354.20      453209.70      0.0375783
      159.0000      506535.70      453209.70      0.1075334
      162.0000      462612.70      453209.70      0.0271203
      165.0000      493644.60      453209.70      0.0644029
      168.0000      472011.30      453209.70      -0.0140050
      171.0000      471332.30      453209.70      0.0442509
      174.0000      471332.30      453209.70      0.0281958
      177.0000      471332.30      453209.70      0.0447056
      180.0000      417105.20      453209.70      -0.0511051
      183.0000      421732.20      453209.70      -0.0026602
      186.0000      373701.70      453209.70      -0.0436034
      189.0000      407351.80      453209.70      -0.0598745
      192.0000      396823.40      453209.70      -0.0724535
      195.0000      419840.70      453209.70      -0.0231074
      198.0000      410003.40      453209.70      -0.0080504
      201.0000      421533.40      453209.70      -0.0164112
      204.0000      442883.70      453209.70      0.0709122
      207.0000      412946.40      453209.70      0.0377459
      210.0000      404327.50      453209.70      -0.0204592
      213.0000      439873.20      453209.70      0.0628396
      216.0000      400404.00      453209.70      0.0408154
      219.0000      399511.30      453209.70      -0.0130859
      222.0000      424486.60      453209.70      -0.0009026
      225.0000      390304.20      453209.70      -0.0042662
      228.0000      414295.30      453209.70      0.0025037
      231.0000      391321.50      453209.70      -0.0055223
      234.0000      419638.50      453209.70      0.0304142
      237.0000      403048.90      453209.70      -0.0244781
      240.0000      417404.10      453209.70      0.0662402
      243.0000      419332.50      453209.70      0.0480864
      246.0000      383450.20      453209.70      0.0003754
      249.0000      399890.80      453209.70      0.0218567
      252.0000      448782.60      453209.70      0.0831355
      255.0000      408360.80      453209.70      -0.0255511
      258.0000      401831.20      453209.70      -0.0082580
      261.0000      409026.30      453209.70      -0.0274419
      264.0000      374000.20      453209.70      -0.0442295
      267.0000      420081.90      453209.70      0.0108018
      270.0000      374873.20      453209.70      -0.0380883
      273.0000      385873.10      453209.70      -0.0312060
      276.0000      365380.30      453209.70      -0.0756425
      279.0000      389434.80      453209.70      -0.0170209
      282.0000      379066.80      453209.70      -0.0521541
      285.0000      374651.70      453209.70      -0.1199912
      288.0000      399692.50      453209.70      0.0000553
      291.0000      407735.40      453209.70      0.0006568
      294.0000      361536.20      453209.70      -0.0826281
      297.0000      418511.20      453209.70      -0.1601444
      300.0000      391762.70      453209.70      -0.0690875
      303.0000      425241.00      453209.70      0.0439981
      306.0000      436750.30      453209.70      0.0277277
      309.0000      396216.70      453209.70      -0.0763596
      312.0000      467360.30      453209.70      0.0548499
      315.0000      409793.40      453209.70      -0.0374637
      318.0000      434981.30      453209.70      -0.0022760
      321.0000      447542.30      453209.70      0.0427833
      324.0000      423535.70      453209.70      0.0309290
      327.0000      446156.40      453209.70      -0.0006397
      330.0000      485815.50      453209.70      0.1055502
      333.0000      473883.30      453209.70      0.0896324
      336.0000      428636.40      453209.70      0.0375783
      339.0000      508884.10      453209.70      0.1075335
      342.0000      482454.50      453209.70      0.0271203
      345.0000      488346.60      453209.70      0.0644029
      348.0000      439616.90      453209.70      -0.0140049
      351.0000      500285.90      453209.70      0.0442509
      354.0000      488408.10      453209.70      0.0281958
      357.0000      508967.90      453209.70      0.0447057
      360.0000      417105.20      453209.70      -0.0511051
       5     121       19.5900     24.0000      1.00000      0.00000
      0.0000      408417.20      411461.10      -0.0394549
      3.0000      470262.10      411461.10      0.0129067
      6.0000      457389.70      411461.10      -0.0018492
      9.0000      457876.40      411461.10      0.0356077
      12.0000      484866.70      411461.10      0.0614921
      15.0000      432949.50      411461.10      -0.0108678
      18.0000      443399.00      411461.10      -0.0389232
      21.0000      412647.10      411461.10      -0.1027592
      24.0000      466151.20      411461.10      0.0052170
      27.0000      466151.20      411461.10      0.0168209
      30.0000      487969.30      411461.10      0.0362241
      33.0000      510736.20      411461.10      0.0439510
      36.0000      480719.20      411461.10      -0.0033302
      39.0000      468805.30      411461.10      -0.0292446
      42.0000      489731.00      411461.10      0.0033980
      45.0000      478561.10      411461.10      0.0186584
      48.0000      468325.50      411461.10      0.0243493
      51.0000      488350.40      411461.10      0.0070795
      54.0000      467611.20      411461.10      -0.0328769
      57.0000      493800.20      411461.10      0.0010346
      60.0000      497725.20      411461.10      0.0318511
      63.0000      493738.10      411461.10      -0.0673912
      66.0000      422261.20      411461.10      -0.1355155
      69.0000      463500.00      411461.10      0.0256643
      72.0000      448045.40      411461.10      -0.0211249
      75.0000      440339.90      411461.10      -0.0373501
      78.0000      439862.20      411461.10      -0.0163578
      81.0000      438848.20      411461.10      -0.0167131
      84.0000      444054.90      411461.10      0.0062963
      87.0000      415215.80      411461.10      -0.0808391
      90.0000      439466.10      411461.10      -0.0546985
      93.0000      459777.80      411461.10      -0.0099180
      96.0000      433951.90      411461.10      -0.0123423
      99.0000      408639.70      411461.10      -0.1090851
      102.0000      413156.50      411461.10      -0.0173532
      105.0000      417718.90      411461.10      -0.0191327
      108.0000      346525.50      411461.10      -0.1134790
      111.0000      441013.90      411461.10      0.0132433
      114.0000      394276.40      411461.10      -0.0594377
      117.0000      435498.30      411461.10      0.0066189
      120.0000      412782.80      411461.10      0.0001213
      123.0000      411171.80      411461.10      0.0035427
      126.0000      424790.30      411461.10      -0.0192853
      129.0000      397109.90      411461.10      0.0316406
      132.0000      429757.30      411461.10      0.0675822
      135.0000      399644.80      411461.10      0.0400474
      138.0000      405502.60      411461.10      -0.0092276
      141.0000      443790.40      411461.10      0.0930324
      144.0000      462262.10      411461.10      0.0714290
      147.0000      443987.00      411461.10      0.0736645
      150.0000      423902.80      411461.10      0.0408244
      153.0000      474751.20      411461.10      0.1246202
      156.0000      422099.80      411461.10      0.0484635
      159.0000      421837.80      411461.10      -0.0030291
      162.0000      435767.10      411461.10      0.0422449
      165.0000      441802.50      411461.10      0.0700394
      168.0000      432515.00      411461.10      0.0068622
      171.0000      416143.90      411461.10      0.0194043
      174.0000      414397.60      411461.10      0.0487762
      177.0000      383746.90      411461.10      -0.0803661
      180.0000      388575.50      411461.10      -0.0394549
      183.0000      375919.50      411461.10      0.0129067
      186.0000      375242.60      411461.10      -0.0018492
      189.0000      402697.80      411461.10      0.0356077
      192.0000      399307.90      411461.10      0.0614920
      195.0000      386792.60      411461.10      -0.0108678
      198.0000      356629.40      411461.10      -0.0389232
      201.0000      333263.80      411461.10      -0.1027591
      204.0000      369420.00      411461.10      0.0052169
      207.0000      377007.10      411461.10      0.0168208
      210.0000      372994.30      411461.10      0.0362241
      213.0000      359761.20      411461.10      0.0439511
      216.0000      347887.20      411461.10      -0.0033302
      219.0000      337409.00      411461.10      -0.0292446
      222.0000      343726.70      411461.10      0.0033980
      225.0000      362289.10      411461.10      0.0186584
      228.0000      373173.60      411461.10      0.0243493
      231.0000      344313.80      411461.10      0.0070795
      234.0000      330706.30      411461.10      -0.0328769
      237.0000      333759.90      411461.10      0.0010345
      240.0000      351681.20      411461.10      0.0318511
      243.0000      283186.90      411461.10      -0.0673912
      246.0000      288947.10      411461.10      -0.1355155
      249.0000      370858.80      411461.10      0.0256643
      252.0000      348774.50      411461.10      -0.0211249
      255.0000      342511.20      411461.10      -0.0373501
      258.0000      357197.10      411461.10      -0.0163578
      261.0000      357197.10      411461.10      -0.0167130
      264.0000      369075.40      411461.10      0.0062963
      267.0000      329169.70      411461.10      -0.0808391
      270.0000      328301.60      411461.10      -0.0546985
      273.0000      343956.10      411461.10      -0.0099180
      276.0000      362898.90      411461.10      -0.0123423
      279.0000      313345.40      411461.10      -0.1090851
      282.0000      376560.80      411461.10      -0.0173532
      285.0000      371855.30      411461.10      -0.0191327
      288.0000      362587.20      411461.10      -0.1134789
      291.0000      377138.30      411461.10      0.0132433
      294.0000      363663.90      411461.10      -0.0594377
      297.0000      378348.40      411461.10      0.0066188
      300.0000      394351.80      411461.10      0.0001213
      303.0000      399664.30      411461.10      0.0035427
      306.0000      371167.70      411461.10      -0.0192854
      309.0000      437475.40      411461.10      0.0316406
      312.0000      437371.90      411461.10      0.0675822
      315.0000      446188.40      411461.10      0.0400474
      318.0000      403559.00      411461.10      -0.0092276
      321.0000      451090.50      411461.10      0.0930323
      324.0000      417588.10      411461.10      0.0714290
      327.0000      440232.40      411461.10      0.0736646
      330.0000      436166.70      411461.10      0.0408244
      333.0000      456896.60      411461.10      0.1246202
      336.0000      450801.50      411461.10      0.0484635
      339.0000      409554.90      411461.10      -0.0030291
      342.0000      437129.30      411461.10      0.0422449
      345.0000      458670.30      411461.10      0.0700394
      348.0000      415681.90      411461.10      0.0068622
      351.0000      450105.50      411461.10      0.0194043
      354.0000      483996.60      411461.10      0.0487762
      357.0000      403404.80      411461.10      -0.0803661
      360.0000      388575.50      411461.10      -0.0394549
       6     121       19.5900     27.0000      1.00000      0.00000
      0.0000      428265.30      381510.40      -0.0304315
      3.0000      486871.50      381510.40      0.0142901
      6.0000      446039.40      381510.40      -0.0283082
      9.0000      440505.10      381510.40      -0.0112492
      12.0000      427790.70      381510.40      -0.0352539
      15.0000      446071.50      381510.40      -0.0065582
      18.0000      434467.40      381510.40      -0.0155199
      21.0000      478314.60      381510.40      0.0237111
      24.0000      442884.60      381510.40      -0.0423060
      27.0000      472671.00      381510.40      0.0761116
      30.0000      509754.20      381510.40      0.1061506
      33.0000      433194.30      381510.40      0.0245179
      36.0000      470023.90      381510.40      0.1110749
      39.0000      428074.30      381510.40      0.0661820
      42.0000      443400.50      381510.40      -0.0254897
      45.0000      489161.40      381510.40      0.0654336
      48.0000      466712.00      381510.40      -0.0160187
      51.0000      475966.70      381510.40      0.0417629
      54.0000      398013.20      381510.40      -0.0357249
      57.0000      449204.20      381510.40      0.0058670
      60.0000      428341.80      381510.40      -0.0135782
      63.0000      415595.10      381510.40      -0.0164194
      66.0000      399927.80      381510.40      -0.0024396
      69.0000      399927.80      381510.40      -0.0331506
      72.0000      399927.80      381510.40      0.0167718
      75.0000      345183.70      381510.40      -0.0969055
      78.0000      379115.60      381510.40      -0.0927793
      81.0000      419065.80      381510.40      -0.0440532
      84.0000      419065.80      381510.40      0.0458608
      87.0000      377846.40      381510.40      -0.0486681
      90.0000      393644.80      381510.40      -0.0326387
      93.0000      358873.00      381510.40      -0.0498162
      96.0000      400364.90      381510.40      -0.0524774
      99.0000      362012.00      381510.40      -0.0355667
      102.0000      354487.90      381510.40      -0.0767921
      105.0000      370855.80      381510.40      -0.0267656
      108.0000      327287.60      381510.40      -0.0644477
      111.0000      352026.20      381510.40      -0.0523433
      114.0000      352026.20      381510.40      -0.0374360
      117.0000      320830.30      381510.40      -0.0281039
      120.0000      327932.50      381510.40      -0.0555726
      123.0000      340125.20      381510.40      -0.0192267
      126.0000      352695.10      381510.40      -0.0066015
      129.0000      360733.80      381510.40      0.0269003
      132.0000      366334.20      381510.40      0.0952224
      135.0000      386285.20      381510.40      0.0631367
      138.0000      363372.90      381510.40      0.0238375
      141.0000      354979.30      381510.40      -0.0393274
      144.0000      354599.60      381510.40      0.0380602
      147.0000      382686.10      381510.40      0.0676763
      150.0000      362306.60      381510.40      0.0342689
      153.0000      330450.00      381510.40      -0.0142250
      156.0000      388406.30      381510.40      0.0564992
      159.0000      388406.30      381510.40      0.0620219
      162.0000      416907.70      381510.40      0.0552900
      165.0000      383733.00      381510.40      0.0418653
      168.0000      383733.00      381510.40      0.0514436
      171.0000      313152.20      381510.40      -0.0956541
      174.0000      422621.30      381510.40      0.0926388
      177.0000      349886.00      381510.40      -0.0252535
      180.0000      358050.40      381510.40      -0.0304315
      183.0000      343051.70      381510.40      0.0142901
      186.0000      340836.40      381510.40      -0.0283082
      189.0000      353948.70      381510.40      -0.0112492
      192.0000      344233.80      381510.40      -0.0352539
      195.0000      347658.80      381510.40      -0.0065582
      198.0000      347658.80      381510.40      -0.0155199
      201.0000      338779.00      381510.40      0.0237110
      204.0000      317950.00      381510.40      -0.0423060
      207.0000      373735.30      381510.40      0.0761117
      210.0000      363112.80      381510.40      0.1061506
      213.0000      364131.10      381510.40      0.0245179
      216.0000      392324.50      381510.40      0.1110749
      219.0000      392324.50      381510.40      0.0661820
      222.0000      315393.90      381510.40      -0.0254897
      225.0000      339033.50      381510.40      0.0654336
      228.0000      299022.60      381510.40      -0.0160187
      231.0000      329052.70      381510.40      0.0417629
      234.0000      337382.70      381510.40      -0.0357249
      237.0000      322304.50      381510.40      0.0058670
      240.0000      324386.40      381510.40      -0.0135782
      243.0000      331432.10      381510.40      -0.0164194
      246.0000      352787.00      381510.40      -0.0024395
      249.0000      330215.30      381510.40      -0.0331506
      252.0000      363588.80      381510.40      0.0167718
      255.0000      330593.50      381510.40      -0.0969055
      258.0000      303069.70      381510.40      -0.0927793
      261.0000      301039.50      381510.40      -0.0440532
      264.0000      362976.90      381510.40      0.0458608
      267.0000      332322.30      381510.40      -0.0486680
      270.0000      328658.00      381510.40      -0.0326386
      273.0000      347383.70      381510.40      -0.0498162
      276.0000      306896.20      381510.40      -0.0524774
      279.0000      353869.50      381510.40      -0.0355667
      282.0000      331035.20      381510.40      -0.0767920
      285.0000      351398.00      381510.40      -0.0267656
      288.0000      365572.00      381510.40      -0.0644477
      291.0000      350708.50      381510.40      -0.0523433
      294.0000      361726.90      381510.40      -0.0374359
      297.0000      399593.70      381510.40      -0.0281039
      300.0000      372859.30      381510.40      -0.0555726
      303.0000      388253.00      381510.40      -0.0192268
      306.0000      385642.50      381510.40      -0.0066015
      309.0000      403371.20      381510.40      0.0269003
      312.0000      450292.20      381510.40      0.0952224
      315.0000      406120.40      381510.40      0.0631367
      318.0000      401247.30      381510.40      0.0238375
      321.0000      362547.80      381510.40      -0.0393274
      324.0000      424325.00      381510.40      0.0380601
      327.0000      418352.00      381510.40      0.0676763
      330.0000      416076.80      381510.40      0.0342690
      333.0000      414877.90      381510.40      -0.0142250
      336.0000      407879.80      381510.40      0.0564992
      339.0000      414122.00      381510.40      0.0620219
      342.0000      377519.20      381510.40      0.0552899
      345.0000      407028.20      381510.40      0.0418653
      348.0000      417099.80      381510.40      0.0514436
      351.0000      381008.80      381510.40      -0.0956540
      354.0000      409514.80      381510.40      0.0926388
      357.0000      400731.20      381510.40      -0.0252535
      360.0000      358050.40      381510.40      -0.0304315
       7     121       19.5900     30.0000      1.00000      0.00000
      0.0000      989996.00      917955.20      -0.0318941
      3.0000      990290.90      917955.20      -0.0569220
      6.0000      963750.30      917955.20      -0.0780013
      9.0000      1027546.20      917955.20      -0.0710106
      12.0000      1054480.10      917955.20      -0.0092141
      15.0000      1116677.60      917955.20      0.0365999
      18.0000      1037824.90      917955.20      -0.0027745
      21.0000      1016236.00      917955.20      -0.0135150
      24.0000      1016236.00      917955.20      -0.0204741
      27.0000      997641.50      917955.20      -0.0370397
      30.0000      808664.00      917955.20      -0.1131729
      33.0000      1050047.20      917955.20      -0.0374883
      36.0000      1052790.90      917955.20      0.0035226
      39.0000      1090781.40      917955.20      -0.0037222
      42.0000      1086225.80      917955.20      0.0339855
      45.0000      1105595.30      917955.20      0.0370894
      48.0000      1235867.90      917955.20      0.0981891
      51.0000      1077373.00      917955.20      -0.0051236
      54.0000      1166119.00      917955.20      0.0323895
      57.0000      1036617.90      917955.20      0.0099716
      60.0000      1061196.30      917955.20      -0.0068098
      63.0000      1059281.30      917955.20      0.0105404
      66.0000      1058749.10      917955.20      0.0274088
      69.0000      993117.40      917955.20      -0.0380729
      72.0000      993117.40      917955.20      0.0062864
      75.0000      928927.20      917955.20      -0.0419778
      78.0000      988376.90      917955.20      0.0651898
      81.0000      936021.20      917955.20      0.0026343
      84.0000      997272.20      917955.20      -0.0028283
      87.0000      931349.90      917955.20      -0.0409088
      90.0000      1058384.70      917955.20      0.0354698
      93.0000      980709.40      917955.20      -0.0019933
      96.0000      925481.00      917955.20      0.0066814
      99.0000      925481.00      917955.20      0.0125530
      102.0000      810005.70      917955.20      -0.0332699
      105.0000      829292.70      917955.20      0.0138529
      108.0000      892214.00      917955.20      -0.0155335
      111.0000      957807.50      917955.20      0.0139538
      114.0000      828182.70      917955.20      -0.0362361
      117.0000      864566.80      917955.20      -0.0031642
      120.0000      868976.10      917955.20      0.0148952
      123.0000      878179.50      917955.20      0.0188554
      126.0000      931363.90      917955.20      0.0983049
      129.0000      945334.20      917955.20      0.0481878
      132.0000      884587.70      917955.20      0.0493015
      135.0000      909306.70      917955.20      0.1032934
      138.0000      934411.70      917955.20      0.0891853
      141.0000      902643.00      917955.20      0.0714422
      144.0000      926566.50      917955.20      0.0181694
      147.0000      878887.70      917955.20      0.0048616
      150.0000      879318.00      917955.20      0.0313771
      153.0000      864115.30      917955.20      -0.0307837
      156.0000      856421.00      917955.20      -0.0099247
      159.0000      913360.20      917955.20      0.0458174
      162.0000      858498.50      917955.20      -0.0198734
      165.0000      887307.90      917955.20      -0.0383954
      168.0000      896494.70      917955.20      -0.0422767
      171.0000      798816.30      917955.20      -0.1059280
      174.0000      855808.80      917955.20      -0.0553329
      177.0000      875310.00      917955.20      -0.0418318
      180.0000      868205.80      917955.20      -0.0318941
      183.0000      820448.20      917955.20      -0.0569220
      186.0000      801091.80      917955.20      -0.0780013
      189.0000      757505.60      917955.20      -0.0710106
      192.0000      836255.10      917955.20      -0.0092141
      195.0000      859243.70      917955.20      0.0365999
      198.0000      851246.80      917955.20      -0.0027745
      201.0000      846003.10      917955.20      -0.0135150
      204.0000      829911.10      917955.20      -0.0204741
      207.0000      812827.30      917955.20      -0.0370396
      210.0000      834232.80      917955.20      -0.1131729
      213.0000      761260.10      917955.20      -0.0374883
      216.0000      823797.00      917955.20      0.0035226
      219.0000      776457.50      917955.20      -0.0037222
      222.0000      839394.50      917955.20      0.0339855
      225.0000      824642.00      917955.20      0.0370894
      228.0000      815046.00      917955.20      0.0981890
      231.0000      769697.10      917955.20      -0.0051236
      234.0000      754707.60      917955.20      0.0323895
      237.0000      822149.30      917955.20      0.0099716
      240.0000      770008.80      917955.20      -0.0068098
      243.0000      797530.90      917955.20      0.0105404
      246.0000      823243.70      917955.20      0.0274088
      249.0000      766440.10      917955.20      -0.0380729
      252.0000      838524.00      917955.20      0.0062864
      255.0000      810375.30      917955.20      -0.0419778
      258.0000      937516.40      917955.20      0.0651898
      261.0000      875654.10      917955.20      0.0026343
      264.0000      810576.20      917955.20      -0.0028283
      267.0000      802543.70      917955.20      -0.0409087
      270.0000      817466.10      917955.20      0.0354698
      273.0000      821636.80      917955.20      -0.0019933
      276.0000      885287.90      917955.20      0.0066814
      279.0000      894584.80      917955.20      0.0125530
      282.0000      921346.20      917955.20      -0.0332700
      285.0000      985138.00      917955.20      0.0138529
      288.0000      875666.60      917955.20      -0.0155335
      291.0000      865234.40      917955.20      0.0139538
      294.0000      900496.50      917955.20      -0.0362362
      297.0000      924512.80      917955.20      -0.0031642
      300.0000      953055.40      917955.20      0.0148952
      303.0000      952320.10      917955.20      0.0188554
      306.0000      1043127.80      917955.20      0.0983049
      309.0000      941219.60      917955.20      0.0481878
      312.0000      1005613.40      917955.20      0.0493015
      315.0000      1080817.70      917955.20      0.1032934
      318.0000      1032319.80      917955.20      0.0891853
      321.0000      1035261.40      917955.20      0.0714422
      324.0000      915110.50      917955.20      0.0181694
      327.0000      943023.80      917955.20      0.0048616
      330.0000      995248.40      917955.20      0.0313770
      333.0000      898167.30      917955.20      -0.0307837
      336.0000      949350.40      917955.20      -0.0099248
      339.0000      997376.30      917955.20      0.0458175
      342.0000      935991.60      917955.20      -0.0198734
      345.0000      872141.90      917955.20      -0.0383954
      348.0000      858106.10      917955.20      -0.0422767
      351.0000      848355.20      917955.20      -0.1059281
      354.0000      887486.20      917955.20      -0.0553329
      357.0000      896621.40      917955.20      -0.0418318
      360.0000      868205.80      917955.20      -0.0318941
       8     121       19.5900     33.0000      1.00000      0.00000
      0.0000      802338.20      875678.90      -0.0238139
      3.0000      835430.10      875678.90      0.0219899
      6.0000      840843.80      875678.90      -0.0113352
      9.0000      869797.10      875678.90      -0.0193523
      12.0000      888453.90      875678.90      -0.0103398
      15.0000      848576.00      875678.90      -0.0210062
      18.0000      846464.20      875678.90      -0.0345318
      21.0000      850865.80      875678.90      -0.0388340
      24.0000      884962.40      875678.90      -0.0350128
      27.0000      819478.10      875678.90      -0.0409553
      30.0000      810469.60      875678.90      -0.0503087
      33.0000      852882.60      875678.90      -0.0578344
      36.0000      870948.00      875678.90      -0.0373683
      39.0000      907681.20      875678.90      -0.0005412
      42.0000      912164.70      875678.90      -0.0009124
      45.0000      988046.20      875678.90      0.0230362
      48.0000      1010800.60      875678.90      0.0474703
      51.0000      960835.40      875678.90      0.0017594
      54.0000      983959.00      875678.90      0.0568773
      57.0000      969879.80      875678.90      0.0455921
      60.0000      946503.60      875678.90      0.0091160
      63.0000      936683.00      875678.90      0.0366943
      66.0000      943898.30      875678.90      0.0350136
      69.0000      886084.00      875678.90      -0.0325025
      72.0000      811561.10      875678.90      -0.0554504
      75.0000      871421.70      875678.90      -0.0287061
      78.0000      837785.40      875678.90      -0.0329470
      81.0000      808782.20      875678.90      -0.0522859
      84.0000      859572.70      875678.90      -0.0323209
      87.0000      895366.00      875678.90      -0.0471534
      90.0000      909015.70      875678.90      0.0130601
      93.0000      910742.10      875678.90      -0.0141009
      96.0000      931335.80      875678.90      0.0062026
      99.0000      899772.00      875678.90      -0.0219903
      102.0000      856821.50      875678.90      0.0246562
      105.0000      927501.50      875678.90      0.0392384
      108.0000      925437.20      875678.90      0.0338205
      111.0000      850668.90      875678.90      -0.0653434
      114.0000      869401.10      875678.90      -0.0319290
      117.0000      841191.40      875678.90      -0.0213272
      120.0000      939652.40      875678.90      -0.0070572
      123.0000      832490.40      875678.90      0.0325309
      126.0000      909890.60      875678.90      0.0293387
      129.0000      927817.70      875678.90      0.0555054
      132.0000      926789.90      875678.90      0.0613868
      135.0000      906576.50      875678.90      0.0156686
      138.0000      898829.70      875678.90      0.0905939
      141.0000      996806.10      875678.90      0.1071218
      144.0000      933654.50      875678.90      0.0971487
      147.0000      897379.20      875678.90      0.1034790
      150.0000      929310.20      875678.90      0.0686725
      153.0000      846129.80      875678.90      -0.0020737
      156.0000      840799.10      875678.90      0.0472260
      159.0000      858727.50      875678.90      -0.0022471
      162.0000      876602.40      875678.90      -0.0054842
      165.0000      819854.40      875678.90      -0.0423935
      168.0000      823218.80      875678.90      -0.0600590
      171.0000      878060.60      875678.90      -0.0062156
      174.0000      848538.90      875678.90      -0.0601701
      177.0000      804049.80      875678.90      -0.1052671
      180.0000      841427.00      875678.90      -0.0238140
      183.0000      889026.10      875678.90      0.0219899
      186.0000      830986.40      875678.90      -0.0113352
      189.0000      792358.00      875678.90      -0.0193524
      192.0000      792358.00      875678.90      -0.0103399
      195.0000      815768.10      875678.90      -0.0210062
      198.0000      797628.30      875678.90      -0.0345318
      201.0000      788457.30      875678.90      -0.0388341
      204.0000      764611.30      875678.90      -0.0350129
      207.0000      818172.50      875678.90      -0.0409553
      210.0000      812616.10      875678.90      -0.0503087
      213.0000      762139.30      875678.90      -0.0578344
      216.0000      780560.00      875678.90      -0.0373683
      219.0000      808645.90      875678.90      -0.0005412
      222.0000      805193.80      875678.90      -0.0009124
      225.0000      776249.80      875678.90      0.0230362
      228.0000      796865.60      875678.90      0.0474703
      231.0000      768596.20      875678.90      0.0017594
      234.0000      839119.20      875678.90      0.0568773
      237.0000      834471.30      875678.90      0.0455920
      240.0000      796857.00      875678.90      0.0091160
      243.0000      852086.20      875678.90      0.0366943
      246.0000      843798.80      875678.90      0.0350136
      249.0000      786325.00      875678.90      -0.0325025
      252.0000      817381.60      875678.90      -0.0554504
      255.0000      808041.00      875678.90      -0.0287061
      258.0000      832919.50      875678.90      -0.0329470
      261.0000      828747.60      875678.90      -0.0522859
      264.0000      816629.50      875678.90      -0.0323209
      267.0000      760400.00      875678.90      -0.0471535
      270.0000      849591.70      875678.90      0.0130601
      273.0000      804229.00      875678.90      -0.0141009
      276.0000      820777.50      875678.90      0.0062026
      279.0000      804675.00      875678.90      -0.0219903
      282.0000      926026.90      875678.90      0.0246562
      285.0000      886416.80      875678.90      0.0392384
      288.0000      881662.30      875678.90      0.0338205
      291.0000      786058.70      875678.90      -0.0653434
      294.0000      828039.80      875678.90      -0.0319290
      297.0000      876765.50      875678.90      -0.0213273
      300.0000      808240.50      875678.90      -0.0070572
      303.0000      986822.40      875678.90      0.0325309
      306.0000      908287.10      875678.90      0.0293387
      309.0000      940733.60      875678.90      0.0555054
      312.0000      956718.20      875678.90      0.0613868
      315.0000      899783.10      875678.90      0.0156686
      318.0000      1048658.90      875678.90      0.0905939
      321.0000      982076.90      875678.90      0.1071218
      324.0000      1036203.40      875678.90      0.0971487
      327.0000      1093360.50      875678.90      0.1034790
      330.0000      1000462.80      875678.90      0.0686725
      333.0000      964236.00      875678.90      -0.0020737
      336.0000      1071475.50      875678.90      0.0472260
      339.0000      963597.40      875678.90      -0.0022471
      342.0000      944116.80      875678.90      -0.0054842
      345.0000      944116.80      875678.90      -0.0423935
      348.0000      912587.10      875678.90      -0.0600590
      351.0000      963787.80      875678.90      -0.0062156
      354.0000      897424.90      875678.90      -0.0601701
      357.0000      866500.30      875678.90      -0.1052671
      360.0000      841427.00      875678.90      -0.0238140
       9     121       19.5900     36.0000      1.00000      0.00000
      0.0000      776032.10      738792.50      0.0028334
      3.0000      809161.70      738792.50      0.0195389
      6.0000      827746.10      738792.50      0.0399274
      9.0000      834170.50      738792.50      0.0419135
      12.0000      828874.70      738792.50      0.0310981
      15.0000      818200.60      738792.50      0.0121731
      18.0000      808628.80      738792.50      0.0065777
      21.0000      801979.60      738792.50      0.0006573
      24.0000      768846.90      738792.50      -0.0209754
      27.0000      727324.70      738792.50      -0.0715702
      30.0000      727430.10      738792.50      -0.0733307
      33.0000      723413.70      738792.50      -0.0849713
      36.0000      723413.70      738792.50      -0.0866928
      39.0000      783444.00      738792.50      -0.0387843
      42.0000      810750.10      738792.50      -0.0174961
      45.0000      817875.00      738792.50      -0.0068584
      48.0000      807650.30      738792.50      -0.0001806
      51.0000      817082.60      738792.50      -0.0217446
      54.0000      789603.80      738792.50      -0.0274487
      57.0000      811573.60      738792.50      -0.0047302
      60.0000      791611.00      738792.50      -0.0090989
      63.0000      766619.40      738792.50      -0.0267838
      66.0000      758497.50      738792.50      -0.0420251
      69.0000      746216.80      738792.50      -0.0601095
      72.0000      722111.00      738792.50      -0.0889994
      75.0000      732784.70      738792.50      -0.0615365
      78.0000      777658.40      738792.50      -0.0077939
      81.0000      802687.40      738792.50      0.0022100
      84.0000      834117.70      738792.50      0.0467210
      87.0000      801384.60      738792.50      0.0239266
      90.0000      852950.40      738792.50      0.0638559
      93.0000      900794.60      738792.50      0.1201501
      96.0000      848429.30      738792.50      0.0960608
      99.0000      814320.40      738792.50      0.0724723
      102.0000      793569.30      738792.50      0.0612262
      105.0000      762098.90      738792.50      0.0327521
      108.0000      763678.20      738792.50      0.0372193
      111.0000      718018.60      738792.50      -0.0074409
      114.0000      762702.60      738792.50      0.0207823
      117.0000      764161.60      738792.50      0.0071331
      120.0000      771651.80      738792.50      0.0060657
      123.0000      759761.70      738792.50      0.0089683
      126.0000      742463.00      738792.50      0.0192262
      129.0000      757748.00      738792.50      0.0249080
      132.0000      743342.20      738792.50      0.0193226
      135.0000      732385.00      738792.50      0.0241421
      138.0000      743157.70      738792.50      0.0387022
      141.0000      738713.30      738792.50      0.0526933
      144.0000      713781.90      738792.50      0.0280526
      147.0000      702517.80      738792.50      0.0496205
      150.0000      675581.90      738792.50      0.0057553
      153.0000      707124.50      738792.50      -0.0020304
      156.0000      691627.90      738792.50      -0.0143300
      159.0000      699776.80      738792.50      -0.0177238
      162.0000      684259.20      738792.50      -0.0366108
      165.0000      691384.90      738792.50      -0.0303922
      168.0000      689266.50      738792.50      -0.0209666
      171.0000      679508.10      738792.50      -0.0475258
      174.0000      700176.90      738792.50      -0.0391287
      177.0000      686197.60      738792.50      -0.0558393
      180.0000      710349.40      738792.50      0.0028334
      183.0000      703764.60      738792.50      0.0195388
      186.0000      714892.30      738792.50      0.0399275
      189.0000      711124.70      738792.50      0.0419135
      192.0000      699841.00      738792.50      0.0310982
      195.0000      682053.20      738792.50      0.0121731
      198.0000      681492.70      738792.50      0.0065776
      201.0000      677938.50      738792.50      0.0006573
      204.0000      675517.00      738792.50      -0.0209754
      207.0000      640954.10      738792.50      -0.0715702
      210.0000      637300.90      738792.50      -0.0733307
      213.0000      623800.00      738792.50      -0.0849713
      216.0000      620318.40      738792.50      -0.0866928
      219.0000      633027.30      738792.50      -0.0387843
      222.0000      637440.90      738792.50      -0.0174960
      225.0000      644528.20      738792.50      -0.0068584
      228.0000      660937.00      738792.50      -0.0001806
      231.0000      622882.90      738792.50      -0.0217446
      234.0000      637357.80      738792.50      -0.0274487
      237.0000      648208.60      738792.50      -0.0047302
      240.0000      658290.60      738792.50      -0.0090989
      243.0000      654905.80      738792.50      -0.0267838
      246.0000      640563.10      738792.50      -0.0420250
      249.0000      626037.50      738792.50      -0.0601096
      252.0000      607208.50      738792.50      -0.0889994
      255.0000      634576.40      738792.50      -0.0615365
      258.0000      667993.20      738792.50      -0.0077939
      261.0000      659440.00      738792.50      0.0022100
      264.0000      692141.60      738792.50      0.0467210
      267.0000      689770.10      738792.50      0.0239266
      270.0000      698715.50      738792.50      0.0638559
      273.0000      733357.50      738792.50      0.1201501
      276.0000      747459.60      738792.50      0.0960608
      279.0000      746290.90      738792.50      0.0724723
      282.0000      750437.30      738792.50      0.0612262
      285.0000      740725.20      738792.50      0.0327521
      288.0000      746840.80      738792.50      0.0372193
      291.0000      728101.50      738792.50      -0.0074409
      294.0000      727660.80      738792.50      0.0207822
      297.0000      708551.20      738792.50      0.0071332
      300.0000      701620.30      738792.50      0.0060657
      303.0000      719332.40      738792.50      0.0089683
      306.0000      753588.20      738792.50      0.0192262
      309.0000      749484.20      738792.50      0.0249081
      312.0000      758627.00      738792.50      0.0193226
      315.0000      780202.20      738792.50      0.0241422
      318.0000      794624.90      738792.50      0.0387022
      321.0000      824432.50      738792.50      0.0526933
      324.0000      817572.50      738792.50      0.0280526
      327.0000      867683.20      738792.50      0.0496205
      330.0000      834048.50      738792.50      0.0057553
      333.0000      792561.00      738792.50      -0.0020304
      336.0000      795506.20      738792.50      -0.0143300
      339.0000      786347.40      738792.50      -0.0177238
      342.0000      779119.00      738792.50      -0.0366108
      345.0000      786871.80      738792.50      -0.0303922
      348.0000      811181.50      738792.50      -0.0209666
      351.0000      784919.00      738792.50      -0.0475258
      354.0000      780626.00      738792.50      -0.0391287
      357.0000      775910.70      738792.50      -0.0558394
      360.0000      710349.40      738792.50      0.0028334
       10     121       19.5900     39.0000      1.00000      0.00000
      0.0000      756761.90      708901.20      -0.0151250
      3.0000      793248.90      708901.20      -0.0356666
      6.0000      798807.10      708901.20      0.0106555
      9.0000      812037.20      708901.20      0.0174042
      12.0000      830201.50      708901.20      0.0334206
      15.0000      828448.30      708901.20      0.0275130
      18.0000      846787.70      708901.20      0.0334051
      21.0000      821798.80      708901.20      0.0023678
      24.0000      758048.30      708901.20      -0.0247379
      27.0000      767082.80      708901.20      -0.0240100
      30.0000      723355.30      708901.20      -0.0921959
      33.0000      728314.80      708901.20      -0.0746677
      36.0000      739186.20      708901.20      -0.0575065
      39.0000      785662.10      708901.20      -0.0114288
      42.0000      799062.40      708901.20      -0.0023394
      45.0000      790434.00      708901.20      -0.0079175
      48.0000      797968.20      708901.20      -0.0028396
      51.0000      780868.70      708901.20      -0.0121411
      54.0000      783026.40      708901.20      -0.0110878
      57.0000      785534.80      708901.20      -0.0030713
      60.0000      810408.90      708901.20      0.0377135
      63.0000      788153.50      708901.20      -0.0004620
      66.0000      776018.90      708901.20      -0.0106688
      69.0000      705402.60      708901.20      -0.0648458
      72.0000      709585.80      708901.20      -0.0660775
      75.0000      743401.30      708901.20      -0.0422916
      78.0000      775246.40      708901.20      0.0052136
      81.0000      775246.40      708901.20      0.0177218
      84.0000      806213.60      708901.20      0.0372534
      87.0000      830587.70      708901.20      0.0701822
      90.0000      806907.30      708901.20      0.0640718
      93.0000      802102.90      708901.20      0.0669597
      96.0000      815765.50      708901.20      0.0693254
      99.0000      761421.20      708901.20      0.0491812
      102.0000      750386.80      708901.20      0.0398756
      105.0000      740736.60      708901.20      0.0200283
      108.0000      740271.00      708901.20      0.0194537
      111.0000      765051.70      708901.20      0.0231658
      114.0000      808575.80      708901.20      0.0540230
      117.0000      789351.70      708901.20      0.0395595
      120.0000      764782.20      708901.20      0.0421544
      123.0000      748912.60      708901.20      0.0211584
      126.0000      754124.20      708901.20      0.0272018
      129.0000      726613.70      708901.20      0.0073564
      132.0000      721866.10      708901.20      0.0030902
      135.0000      708061.20      708901.20      -0.0076706
      138.0000      672184.30      708901.20      -0.0341621
      141.0000      653290.90      708901.20      -0.0562011
      144.0000      665884.20      708901.20      -0.0444894
      147.0000      682261.30      708901.20      -0.0224186
      150.0000      683130.50      708901.20      -0.0211247
      153.0000      701880.20      708901.20      0.0137371
      156.0000      687238.00      708901.20      -0.0067209
      159.0000      677610.30      708901.20      -0.0108744
      162.0000      663502.70      708901.20      -0.0128753
      165.0000      667062.30      708901.20      0.0158626
      168.0000      662697.60      708901.20      -0.0182227
      171.0000      654331.30      708901.20      -0.0220937
      174.0000      671795.50      708901.20      -0.0211233
      177.0000      664971.00      708901.20      -0.0325400
      180.0000      678651.50      708901.20      -0.0151251
      183.0000      618736.10      708901.20      -0.0356666
      186.0000      674021.70      708901.20      0.0106555
      189.0000      670002.90      708901.20      0.0174042
      192.0000      674068.70      708901.20      0.0334206
      195.0000      665688.10      708901.20      0.0275130
      198.0000      656189.40      708901.20      0.0334051
      201.0000      634051.90      708901.20      0.0023678
      204.0000      648879.50      708901.20      -0.0247379
      207.0000      640269.90      708901.20      -0.0240100
      210.0000      585475.20      708901.20      -0.0921959
      213.0000      602058.80      708901.20      -0.0746677
      216.0000      613261.50      708901.20      -0.0575065
      219.0000      632646.80      708901.20      -0.0114289
      222.0000      631250.10      708901.20      -0.0023393
      225.0000      628923.40      708901.20      -0.0079175
      228.0000      627155.70      708901.20      -0.0028396
      231.0000      627027.90      708901.20      -0.0121411
      234.0000      624551.90      708901.20      -0.0110878
      237.0000      630692.10      708901.20      -0.0030713
      240.0000      660334.70      708901.20      0.0377135
      243.0000      627960.10      708901.20      -0.0004620
      246.0000      623033.80      708901.20      -0.0106687
      249.0000      610262.90      708901.20      -0.0648458
      252.0000      603723.40      708901.20      -0.0660775
      255.0000      604623.60      708901.20      -0.0422916
      258.0000      637238.00      708901.20      0.0052136
      261.0000      651733.70      708901.20      0.0177218
      264.0000      649488.70      708901.20      0.0372534
      267.0000      669801.00      708901.20      0.0701822
      270.0000      680730.30      708901.20      0.0640718
      273.0000      687505.50      708901.20      0.0669597
      276.0000      678060.80      708901.20      0.0693254
      279.0000      697980.30      708901.20      0.0491812
      282.0000      695101.30      708901.20      0.0398756
      285.0000      677562.50      708901.20      0.0200283
      288.0000      677138.80      708901.20      0.0194538
      291.0000      660152.00      708901.20      0.0231658
      294.0000      661897.20      708901.20      0.0540230
      297.0000      660189.30      708901.20      0.0395595
      300.0000      686209.70      708901.20      0.0421544
      303.0000      673469.40      708901.20      0.0211584
      306.0000      677575.50      708901.20      0.0272019
      309.0000      677575.50      708901.20      0.0073564
      312.0000      677575.50      708901.20      0.0030902
      315.0000      677575.50      708901.20      -0.0076705
      318.0000      677575.50      708901.20      -0.0341621
      321.0000      667611.00      708901.20      -0.0562011
      324.0000      673743.70      708901.20      -0.0444894
      327.0000      690802.80      708901.20      -0.0224186
      330.0000      694449.80      708901.20      -0.0211247
      333.0000      727937.20      708901.20      0.0137371
      336.0000      717004.90      708901.20      -0.0067209
      339.0000      724624.10      708901.20      -0.0108744
      342.0000      740611.00      708901.20      -0.0128753
      345.0000      783663.50      708901.20      0.0158626
      348.0000      742256.90      708901.20      -0.0182227
      351.0000      750457.70      708901.20      -0.0220937
      354.0000      737194.60      708901.20      -0.0211233
      357.0000      732432.80      708901.20      -0.0325400
      360.0000      678651.50      708901.20      -0.0151251
       11     121       19.5900     42.0000      1.00000      0.00000
      0.0000      646525.50      619409.20      -0.0516093
      3.0000      669738.90      619409.20      -0.0283215
      6.0000      677539.50      619409.20      -0.0040096
      9.0000      643292.00      619409.20      -0.0522104
      12.0000      663718.90      619409.20      -0.0429363
      15.0000      679794.50      619409.20      -0.0389827
      18.0000      688398.20      619409.20      -0.0230171
      21.0000      674435.40      619409.20      -0.0217749
      24.0000      674765.30      619409.20      -0.0281986
      27.0000      642916.90      619409.20      -0.0586455
      30.0000      610478.70      619409.20      -0.0845010
      33.0000      597327.00      619409.20      -0.0858929
      36.0000      627896.50      619409.20      -0.0466307
      39.0000      642477.10      619409.20      -0.0350393
      42.0000      659924.00      619409.20      -0.0002272
      45.0000      689545.10      619409.20      0.0213021
      48.0000      680351.60      619409.20      0.0295050
      51.0000      672288.30      619409.20      0.0151619
      54.0000      671969.10      619409.20      0.0222091
      57.0000      672717.30      619409.20      0.0348949
      60.0000      652246.80      619409.20      0.0256933
      63.0000      654560.50      619409.20      0.0191363
      66.0000      627026.10      619409.20      -0.0134652
      69.0000      600378.30      619409.20      -0.0356878
      72.0000      617889.20      619409.20      -0.0131491
      75.0000      642217.60      619409.20      0.0095592
      78.0000      650868.30      619409.20      0.0175537
      81.0000      661025.50      619409.20      0.0317789
      84.0000      664235.00      619409.20      0.0497787
      87.0000      648422.40      619409.20      0.0265314
      90.0000      621625.40      619409.20      0.0117995
      93.0000      619883.40      619409.20      0.0225907
      96.0000      632024.50      619409.20      0.0373028
      99.0000      622843.80      619409.20      0.0231386
      102.0000      607749.60      619409.20      0.0383332
      105.0000      596580.30      619409.20      0.0020818
      108.0000      588337.60      619409.20      0.0187314
      111.0000      621186.00      619409.20      0.0277942
      114.0000      631318.60      619409.20      0.0332277
      117.0000      636757.30      619409.20      0.0469423
      120.0000      644140.30      619409.20      0.0545018
      123.0000      640155.50      619409.20      0.0599530
      126.0000      636778.80      619409.20      0.0730134
      129.0000      636778.80      619409.20      0.0762413
      132.0000      632267.70      619409.20      0.0629832
      135.0000      578923.40      619409.20      0.0136077
      138.0000      587787.60      619409.20      -0.0094718
      141.0000      565626.40      619409.20      -0.0445154
      144.0000      588474.90      619409.20      -0.0227296
      147.0000      597524.20      619409.20      -0.0194217
      150.0000      596631.00      619409.20      0.0173401
      153.0000      608257.30      619409.20      0.0338536
      156.0000      596902.20      619409.20      0.0264471
      159.0000      582526.40      619409.20      0.0010076
      162.0000      560442.80      619409.20      -0.0213322
      165.0000      553629.30      619409.20      -0.0123359
      168.0000      555233.80      619409.20      -0.0125092
      171.0000      543907.90      619409.20      -0.0442395
      174.0000      539004.90      619409.20      -0.0531325
      177.0000      529333.80      619409.20      -0.0885044
      180.0000      533284.70      619409.20      -0.0516093
      183.0000      538596.10      619409.20      -0.0283215
      186.0000      558015.00      619409.20      -0.0040096
      189.0000      530721.40      619409.20      -0.0522104
      192.0000      522465.00      619409.20      -0.0429363
      195.0000      511848.50      619409.20      -0.0389827
      198.0000      521118.50      619409.20      -0.0230171
      201.0000      532880.50      619409.20      -0.0217749
      204.0000      523924.90      619409.20      -0.0281986
      207.0000      515283.90      619409.20      -0.0586454
      210.0000      512498.10      619409.20      -0.0845010
      213.0000      521015.30      619409.20      -0.0858929
      216.0000      538058.90      619409.20      -0.0466307
      219.0000      537539.10      619409.20      -0.0350393
      222.0000      560804.90      619409.20      -0.0002272
      225.0000      558511.90      619409.20      0.0213021
      228.0000      574827.50      619409.20      0.0295050
      231.0000      564730.70      619409.20      0.0151619
      234.0000      572252.60      619409.20      0.0222091
      237.0000      585378.10      619409.20      0.0348949
      240.0000      592489.90      619409.20      0.0256933
      243.0000      582537.90      619409.20      0.0191363
      246.0000      569529.50      619409.20      -0.0134652
      249.0000      567863.90      619409.20      -0.0356878
      252.0000      577995.30      619409.20      -0.0131491
      255.0000      582152.20      619409.20      0.0095592
      258.0000      583644.00      619409.20      0.0175537
      261.0000      591088.80      619409.20      0.0317789
      264.0000      609586.70      619409.20      0.0497786
      267.0000      597698.00      619409.20      0.0265314
      270.0000      606471.00      619409.20      0.0117994
      273.0000      621963.40      619409.20      0.0225907
      276.0000      629007.90      619409.20      0.0373028
      279.0000      622280.90      619409.20      0.0231386
      282.0000      657048.60      619409.20      0.0383332
      285.0000      625926.70      619409.20      0.0020818
      288.0000      656522.50      619409.20      0.0187314
      291.0000      636596.50      619409.20      0.0277942
      294.0000      635131.00      619409.20      0.0332277
      297.0000      648950.10      619409.20      0.0469423
      300.0000      653281.60      619409.20      0.0545018
      303.0000      667158.70      619409.20      0.0599530
      306.0000      690525.00      619409.20      0.0730135
      309.0000      698092.50      619409.20      0.0762413
      312.0000      689435.40      619409.20      0.0629832
      315.0000      687663.90      619409.20      0.0136077
      318.0000      651245.70      619409.20      -0.0094718
      321.0000      633580.30      619409.20      -0.0445154
      324.0000      640691.30      619409.20      -0.0227296
      327.0000      638851.10      619409.20      -0.0194217
      330.0000      694874.90      619409.20      0.0173400
      333.0000      709025.40      619409.20      0.0338536
      336.0000      717829.30      619409.20      0.0264470
      339.0000      705146.90      619409.20      0.0010076
      342.0000      706485.40      619409.20      -0.0213322
      345.0000      734328.30      619409.20      -0.0123359
      348.0000      738740.80      619409.20      -0.0125092
      351.0000      713310.30      619409.20      -0.0442395
      354.0000      713344.00      619409.20      -0.0531325
      357.0000      679644.70      619409.20      -0.0885044
      360.0000      533284.70      619409.20      -0.0516093
       12     121       19.5900     45.0000      1.00000      0.00000
      0.0000      606094.50      597174.70      -0.0795125
      3.0000      638949.40      597174.70      -0.0390300
      6.0000      651938.60      597174.70      -0.0402461
      9.0000      620781.00      597174.70      -0.0719113
      12.0000      617287.30      597174.70      -0.0716527
      15.0000      624582.80      597174.70      -0.0814416
      18.0000      674018.50      597174.70      -0.0397055
      21.0000      663971.20      597174.70      -0.0130564
      24.0000      663172.90      597174.70      -0.0192132
      27.0000      665045.00      597174.70      -0.0153758
      30.0000      637362.70      597174.70      -0.0298340
      33.0000      622551.20      597174.70      -0.0521955
      36.0000      642360.70      597174.70      -0.0338133
      39.0000      647525.40      597174.70      -0.0308072
      42.0000      679974.70      597174.70      0.0070944
      45.0000      723279.60      597174.70      0.0550536
      48.0000      723279.60      597174.70      0.0803593
      51.0000      751499.60      597174.70      0.1002937
      54.0000      724324.60      597174.70      0.0885701
      57.0000      701698.80      597174.70      0.0799259
      60.0000      659738.70      597174.70      0.0291552
      63.0000      646828.10      597174.70      0.0044145
      66.0000      618703.40      597174.70      -0.0658988
      69.0000      612322.40      597174.70      -0.0093305
      72.0000      634555.80      597174.70      -0.0142251
      75.0000      637177.80      597174.70      -0.0205673
      78.0000      670840.70      597174.70      0.0246331
      81.0000      659506.40      597174.70      0.0298850
      84.0000      658284.20      597174.70      0.0396510
      87.0000      623659.30      597174.70      0.0128532
      90.0000      625525.60      597174.70      0.0131437
      93.0000      628497.10      597174.70      0.0213193
      96.0000      618539.50      597174.70      0.0053041
      99.0000      628443.60      597174.70      0.0615416
      102.0000      640454.70      597174.70      0.0573960
      105.0000      630006.30      597174.70      0.0548784
      108.0000      619264.50      597174.70      0.0320168
      111.0000      619407.50      597174.70      0.0348726
      114.0000      647271.50      597174.70      0.0538418
      117.0000      632107.90      597174.70      0.0532156
      120.0000      616245.10      597174.70      0.0498914
      123.0000      625043.70      597174.70      0.0486879
      126.0000      608517.70      597174.70      0.0539068
      129.0000      617561.70      597174.70      0.0813299
      132.0000      592517.00      597174.70      0.0340042
      135.0000      590729.90      597174.70      0.0201736
      138.0000      583546.10      597174.70      0.0109670
      141.0000      583736.10      597174.70      0.0102934
      144.0000      573333.60      597174.70      -0.0088193
      147.0000      558548.40      597174.70      -0.0329194
      150.0000      546856.80      597174.70      -0.0245460
      153.0000      561349.40      597174.70      0.0186737
      156.0000      561789.40      597174.70      0.0016049
      159.0000      539640.40      597174.70      -0.0407147
      162.0000      533053.50      597174.70      -0.0446366
      165.0000      531747.50      597174.70      -0.0602785
      168.0000      524478.90      597174.70      -0.0658576
      171.0000      520488.10      597174.70      -0.0739007
      174.0000      517535.50      597174.70      -0.0952140
      177.0000      509208.90      597174.70      -0.0985190
      180.0000      521081.50      597174.70      -0.0795125
      183.0000      537030.90      597174.70      -0.0390300
      186.0000      523056.60      597174.70      -0.0402461
      189.0000      512095.70      597174.70      -0.0719113
      192.0000      513528.50      597174.70      -0.0716527
      195.0000      494917.90      597174.70      -0.0814416
      198.0000      498145.80      597174.70      -0.0397055
      201.0000      533928.00      597174.70      -0.0130564
      204.0000      525985.00      597174.70      -0.0192132
      207.0000      526802.00      597174.70      -0.0153758
      210.0000      532097.90      597174.70      -0.0298340
      213.0000      518206.00      597174.70      -0.0521955
      216.0000      520116.10      597174.70      -0.0338133
      219.0000      517398.70      597174.70      -0.0308072
      222.0000      529970.50      597174.70      0.0070943
      225.0000      544328.10      597174.70      0.0550536
      228.0000      570031.10      597174.70      0.0803593
      231.0000      566361.90      597174.70      0.1002937
      234.0000      574657.10      597174.70      0.0885701
      237.0000      582657.20      597174.70      0.0799259
      240.0000      561394.30      597174.70      0.0291552
      243.0000      544103.80      597174.70      0.0044145
      246.0000      490303.60      597174.70      -0.0658988
      249.0000      556149.90      597174.70      -0.0093305
      252.0000      530814.40      597174.70      -0.0142250
      255.0000      520655.30      597174.70      -0.0205673
      258.0000      540035.60      597174.70      0.0246331
      261.0000      554737.40      597174.70      0.0298849
      264.0000      565783.30      597174.70      0.0396510
      267.0000      566130.90      597174.70      0.0128532
      270.0000      564403.40      597174.70      0.0131437
      273.0000      570507.70      597174.70      0.0213193
      276.0000      561481.60      597174.70      0.0053041
      279.0000      615151.20      597174.70      0.0615416
      282.0000      599810.00      597174.70      0.0573960
      285.0000      606835.80      597174.70      0.0548784
      288.0000      591443.20      597174.70      0.0320168
      291.0000      595114.20      597174.70      0.0348726
      294.0000      591208.60      597174.70      0.0538418
      297.0000      605637.50      597174.70      0.0532156
      300.0000      618037.30      597174.70      0.0498915
      303.0000      609408.90      597174.70      0.0486879
      306.0000      633014.70      597174.70      0.0539068
      309.0000      657961.90      597174.70      0.0813299
      312.0000      629107.10      597174.70      0.0340042
      315.0000      616542.20      597174.70      0.0201736
      318.0000      615005.70      597174.70      0.0109670
      321.0000      616329.60      597174.70      0.0102934
      324.0000      606458.30      597174.70      -0.0088193
      327.0000      595172.60      597174.70      -0.0329194
      330.0000      620790.70      597174.70      -0.0245460
      333.0000      662171.40      597174.70      0.0186737
      336.0000      643887.10      597174.70      0.0016049
      339.0000      618446.80      597174.70      -0.0407147
      342.0000      624542.60      597174.70      -0.0446366
      345.0000      609764.60      597174.70      -0.0602784
      348.0000      614876.20      597174.70      -0.0658576
      351.0000      613193.90      597174.70      -0.0739007
      354.0000      592710.90      597174.70      -0.0952140
      357.0000      602683.10      597174.70      -0.0985190
      360.0000      521081.50      597174.70      -0.0795125
       13     121       19.5900     48.0000      1.00000      0.00000
      0.0000      568276.30      564481.00      -0.0692001
      3.0000      587936.30      564481.00      -0.0384963
      6.0000      587311.00      564481.00      -0.0444907
      9.0000      575458.10      564481.00      -0.0535766
      12.0000      595461.50      564481.00      -0.0256668
      15.0000      567960.90      564481.00      -0.0621988
      18.0000      604946.10      564481.00      -0.0195186
      21.0000      599676.50      564481.00      -0.0374952
      24.0000      591864.10      564481.00      -0.0350387
      27.0000      584226.80      564481.00      -0.0509570
      30.0000      572562.00      564481.00      -0.0503815
      33.0000      563928.10      564481.00      -0.0761833
      36.0000      583268.10      564481.00      -0.0426790
      39.0000      610163.60      564481.00      -0.0241360
      42.0000      646789.20      564481.00      0.0104701
      45.0000      659806.90      564481.00      0.0479293
      48.0000      651584.40      564481.00      0.0606929
      51.0000      652918.50      564481.00      0.0692609
      54.0000      630231.10      564481.00      0.0464000
      57.0000      636381.00      564481.00      0.0517804
      60.0000      645853.80      564481.00      0.0613317
      63.0000      640188.40      564481.00      0.0406465
      66.0000      578983.20      564481.00      -0.0136178
      69.0000      574921.60      564481.00      -0.0162609
      72.0000      562672.20      564481.00      -0.0234301
      75.0000      583881.90      564481.00      -0.0067989
      78.0000      577116.50      564481.00      0.0105781
      81.0000      587106.30      564481.00      0.0043200
      84.0000      601258.20      564481.00      0.0491686
      87.0000      572537.70      564481.00      0.0035283
      90.0000      578851.40      564481.00      0.0004940
      93.0000      586612.90      564481.00      0.0303796
      96.0000      595489.20      564481.00      0.0290398
      99.0000      594367.70      564481.00      0.0355135
      102.0000      572472.70      564481.00      0.0196274
      105.0000      563533.80      564481.00      0.0073033
      108.0000      577894.20      564481.00      0.0172079
      111.0000      553371.70      564481.00      0.0103446
      114.0000      595737.00      564481.00      0.0311232
      117.0000      580488.70      564481.00      0.0191031
      120.0000      581006.40      564481.00      0.0391345
      123.0000      583583.20      564481.00      0.0284409
      126.0000      581002.00      564481.00      0.0354140
      129.0000      586848.80      564481.00      0.0623959
      132.0000      588558.00      564481.00      0.0540192
      135.0000      580662.10      564481.00      0.0405612
      138.0000      576363.00      564481.00      0.0457652
      141.0000      565109.10      564481.00      0.0274585
      144.0000      570990.50      564481.00      0.0340867
      147.0000      574835.10      564481.00      0.0431019
      150.0000      566361.70      564481.00      0.0232289
      153.0000      566507.70      564481.00      0.0160222
      156.0000      529114.80      564481.00      -0.0230882
      159.0000      539765.40      564481.00      -0.0193464
      162.0000      514282.90      564481.00      -0.0511005
      165.0000      531380.50      564481.00      -0.0277920
      168.0000      517594.30      564481.00      -0.0365300
      171.0000      496140.00      564481.00      -0.0680196
      174.0000      484627.70      564481.00      -0.0863083
      177.0000      477005.20      564481.00      -0.1067081
      180.0000      491546.20      564481.00      -0.0692001
      183.0000      506261.50      564481.00      -0.0384963
      186.0000      499689.40      564481.00      -0.0444907
      189.0000      499722.50      564481.00      -0.0535766
      192.0000      510968.20      564481.00      -0.0256668
      195.0000      495549.10      564481.00      -0.0621988
      198.0000      507450.00      564481.00      -0.0195186
      201.0000      492179.90      564481.00      -0.0374952
      204.0000      500740.20      564481.00      -0.0350387
      207.0000      489742.60      564481.00      -0.0509570
      210.0000      499663.90      564481.00      -0.0503815
      213.0000      479178.90      564481.00      -0.0761833
      216.0000      496645.80      564481.00      -0.0426790
      219.0000      491746.50      564481.00      -0.0241360
      222.0000      495169.50      564481.00      0.0104701
      225.0000      522174.00      564481.00      0.0479293
      228.0000      541848.70      564481.00      0.0606929
      231.0000      548782.40      564481.00      0.0692609
      234.0000      543882.80      564481.00      0.0464000
      237.0000      543333.70      564481.00      0.0517803
      240.0000      544255.90      564481.00      0.0613318
      243.0000      526827.10      564481.00      0.0406465
      246.0000      523385.20      564481.00      -0.0136178
      249.0000      523704.00      564481.00      -0.0162609
      252.0000      526635.80      564481.00      -0.0234301
      255.0000      524835.20      564481.00      -0.0067989
      258.0000      548943.70      564481.00      0.0105781
      261.0000      533101.20      564481.00      0.0043200
      264.0000      567660.10      564481.00      0.0491686
      267.0000      545252.10      564481.00      0.0035283
      270.0000      536283.70      564481.00      0.0004940
      273.0000      561170.30      564481.00      0.0303796
      276.0000      551756.10      564481.00      0.0290398
      279.0000      560042.80      564481.00      0.0355136
      282.0000      563823.80      564481.00      0.0196274
      285.0000      559489.10      564481.00      0.0073033
      288.0000      557322.40      564481.00      0.0172079
      291.0000      574027.30      564481.00      0.0103446
      294.0000      557028.60      564481.00      0.0311232
      297.0000      559508.20      564481.00      0.0191031
      300.0000      582275.20      564481.00      0.0391345
      303.0000      569167.70      564481.00      0.0284409
      306.0000      580913.20      564481.00      0.0354140
      309.0000      606986.30      564481.00      0.0623959
      312.0000      597621.50      564481.00      0.0540192
      315.0000      592274.90      564481.00      0.0405612
      318.0000      604714.70      564481.00      0.0457652
      321.0000      597582.20      564481.00      0.0274585
      324.0000      601516.10      564481.00      0.0340867
      327.0000      610551.30      564481.00      0.0431018
      330.0000      598979.80      564481.00      0.0232289
      333.0000      593121.50      564481.00      0.0160222
      336.0000      590199.20      564481.00      -0.0230881
      339.0000      586133.40      564481.00      -0.0193464
      342.0000      579293.30      564481.00      -0.0511005
      345.0000      592017.00      564481.00      -0.0277919
      348.0000      600650.20      564481.00      -0.0365301
      351.0000      590096.10      564481.00      -0.0680196
      354.0000      584595.60      564481.00      -0.0863083
      357.0000      571878.00      564481.00      -0.1067081
      360.0000      491546.20      564481.00      -0.0692001
       14     121       19.5900     51.0000      1.00000      0.00000
      0.0000      515459.00      495765.50      -0.0444773
      3.0000      527117.40      495765.50      -0.0222529
      6.0000      535611.10      495765.50      -0.0144062
      9.0000      532982.70      495765.50      -0.0202653
      12.0000      529210.70      495765.50      -0.0215300
      15.0000      517452.10      495765.50      -0.0521015
      18.0000      518408.30      495765.50      -0.0504434
      21.0000      520630.90      495765.50      -0.0521530
      24.0000      512112.60      495765.50      -0.0762527
      27.0000      488058.80      495765.50      -0.0968709
      30.0000      479387.40      495765.50      -0.1079201
      33.0000      516922.80      495765.50      -0.0585485
      36.0000      522004.00      495765.50      -0.0511619
      39.0000      548219.60      495765.50      -0.0258524
      42.0000      580713.80      495765.50      0.0342913
      45.0000      579096.60      495765.50      0.0699258
      48.0000      566021.50      495765.50      0.0589429
      51.0000      566252.20      495765.50      0.0447167
      54.0000      536180.40      495765.50      0.0300568
      57.0000      578108.00      495765.50      0.0722654
      60.0000      588281.40      495765.50      0.0698152
      63.0000      567172.40      495765.50      0.0601724
      66.0000      529530.00      495765.50      -0.0007087
      69.0000      526356.00      495765.50      -0.0134617
      72.0000      513159.00      495765.50      -0.0004791
      75.0000      493206.90      495765.50      -0.0306093
      78.0000      511762.80      495765.50      -0.0114962
      81.0000      495573.00      495765.50      -0.0331996
      84.0000      517967.70      495765.50      -0.0106087
      87.0000      522302.30      495765.50      -0.0020456
      90.0000      513944.80      495765.50      0.0251011
      93.0000      537339.90      495765.50      0.0680823
      96.0000      540205.20      495765.50      0.0778484
      99.0000      539015.20      495765.50      0.0578294
      102.0000      530075.40      495765.50      0.0573155
      105.0000      519310.00      495765.50      0.0542864
      108.0000      506863.50      495765.50      0.0322631
      111.0000      508088.90      495765.50      0.0059320
      114.0000      496136.50      495765.50      -0.0075105
      117.0000      496455.30      495765.50      -0.0090352
      120.0000      486570.00      495765.50      -0.0147790
      123.0000      480335.00      495765.50      -0.0300379
      126.0000      498511.20      495765.50      0.0293512
      129.0000      537976.70      495765.50      0.0895922
      132.0000      533356.60      495765.50      0.0775286
      135.0000      522735.20      495765.50      0.0716028
      138.0000      515237.90      495765.50      0.0412300
      141.0000      500595.30      495765.50      0.0304101
      144.0000      497597.50      495765.50      0.0521365
      147.0000      493099.40      495765.50      0.0305787
      150.0000      506597.40      495765.50      0.0507350
      153.0000      493307.80      495765.50      0.0425685
      156.0000      475149.00      495765.50      0.0097996
      159.0000      448407.20      495765.50      -0.0497362
      162.0000      439387.80      495765.50      -0.0696341
      165.0000      436914.80      495765.50      -0.0741490
      168.0000      406836.20      495765.50      -0.0864844
      171.0000      430940.60      495765.50      -0.0754745
      174.0000      433341.60      495765.50      -0.0799326
      177.0000      453888.10      495765.50      -0.0558407
      180.0000      440156.60      495765.50      -0.0444773
      183.0000      449995.00      495765.50      -0.0222529
      186.0000      449176.60      495765.50      -0.0144062
      189.0000      445257.50      495765.50      -0.0202653
      192.0000      446527.40      495765.50      -0.0215300
      195.0000      427664.00      495765.50      -0.0521015
      198.0000      427533.70      495765.50      -0.0504435
      201.0000      423217.30      495765.50      -0.0521530
      204.0000      407594.10      495765.50      -0.0762527
      207.0000      408410.20      495765.50      -0.0968709
      210.0000      404874.70      495765.50      -0.1079201
      213.0000      417053.60      495765.50      -0.0585485
      216.0000      418578.00      495765.50      -0.0511619
      219.0000      418412.10      495765.50      -0.0258524
      222.0000      444458.00      495765.50      0.0342913
      225.0000      477206.80      495765.50      0.0699258
      228.0000      477476.20      495765.50      0.0589429
      231.0000      463532.10      495765.50      0.0447167
      234.0000      475110.40      495765.50      0.0300568
      237.0000      476734.40      495765.50      0.0722654
      240.0000      465028.60      495765.50      0.0698152
      243.0000      473712.10      495765.50      0.0601724
      246.0000      450290.50      495765.50      -0.0007087
      249.0000      440919.10      495765.50      -0.0134617
      252.0000      463745.50      495765.50      -0.0004791
      255.0000      453350.80      495765.50      -0.0306092
      258.0000      454290.40      495765.50      -0.0114961
      261.0000      448479.00      495765.50      -0.0331996
      264.0000      449257.10      495765.50      -0.0106087
      267.0000      453192.40      495765.50      -0.0020456
      270.0000      485766.70      495765.50      0.0251011
      273.0000      504690.80      495765.50      0.0680822
      276.0000      511485.40      495765.50      0.0778484
      279.0000      494314.70      495765.50      0.0578294
      282.0000      502557.80      495765.50      0.0573155
      285.0000      510362.80      495765.50      0.0542864
      288.0000      502012.60      495765.50      0.0322631
      291.0000      476738.50      495765.50      0.0059320
      294.0000      476200.40      495765.50      -0.0075105
      297.0000      475493.10      495765.50      -0.0090352
      300.0000      480719.30      495765.50      -0.0147790
      303.0000      473333.70      495765.50      -0.0300379
      306.0000      514998.50      495765.50      0.0293512
      309.0000      536719.70      495765.50      0.0895922
      312.0000      531341.70      495765.50      0.0775286
      315.0000      538341.50      495765.50      0.0716028
      318.0000      517720.70      495765.50      0.0412300
      321.0000      524347.90      495765.50      0.0304102
      324.0000      552380.20      495765.50      0.0521365
      327.0000      537819.90      495765.50      0.0305787
      330.0000      547181.20      495765.50      0.0507350
      333.0000      556367.90      495765.50      0.0425685
      336.0000      545186.70      495765.50      0.0097996
      339.0000      514963.80      495765.50      -0.0497362
      342.0000      507203.00      495765.50      -0.0696341
      345.0000      508741.40      495765.50      -0.0741490
      348.0000      534281.70      495765.50      -0.0864844
      351.0000      522172.00      495765.50      -0.0754745
      354.0000      518474.60      495765.50      -0.0799326
      357.0000      525231.40      495765.50      -0.0558407
      360.0000      440156.60      495765.50      -0.0444773
       15     121       19.5900     54.0000      1.00000      0.00000
      0.0000      445078.00      445397.80      -0.0777834
      3.0000      486926.90      445397.80      -0.0216293
      6.0000      491792.80      445397.80      -0.0175343
      9.0000      493108.60      445397.80      -0.0099410
      12.0000      485815.80      445397.80      -0.0144049
      15.0000      465715.20      445397.80      -0.0408770
      18.0000      460929.90      445397.80      -0.0570756
      21.0000      414797.90      445397.80      -0.1256338
      24.0000      440113.90      445397.80      -0.1111722
      27.0000      413884.10      445397.80      -0.1193340
      30.0000      432940.70      445397.80      -0.0948944
      33.0000      479451.00      445397.80      -0.0178909
      36.0000      447682.20      445397.80      -0.0703271
      39.0000      468671.80      445397.80      -0.0379498
      42.0000      505569.60      445397.80      0.0622751
      45.0000      515300.00      445397.80      0.0737530
      48.0000      513466.10      445397.80      0.0729846
      51.0000      522203.00      445397.80      0.0864699
      54.0000      511399.30      445397.80      0.0834385
      57.0000      542110.10      445397.80      0.1078379
      60.0000      524268.10      445397.80      0.0977460
      63.0000      516642.90      445397.80      0.0514367
      66.0000      484631.00      445397.80      0.0303655
      69.0000      480573.60      445397.80      0.0165358
      72.0000      470695.80      445397.80      0.0175387
      75.0000      450701.20      445397.80      -0.0119545
      78.0000      426526.90      445397.80      -0.0365600
      81.0000      418947.60      445397.80      -0.0434458
      84.0000      444899.70      445397.80      -0.0088961
      87.0000      457962.00      445397.80      0.0262271
      90.0000      471166.20      445397.80      0.0592534
      93.0000      479383.00      445397.80      0.0823718
      96.0000      477425.00      445397.80      0.0736107
      99.0000      472950.00      445397.80      0.0598941
      102.0000      485227.90      445397.80      0.0687954
      105.0000      468499.20      445397.80      0.0702065
      108.0000      462150.70      445397.80      0.0266065
      111.0000      450338.40      445397.80      0.0053800
      114.0000      450338.40      445397.80      -0.0108351
      117.0000      421666.30      445397.80      -0.0396970
      120.0000      440147.70      445397.80      -0.0339779
      123.0000      447936.40      445397.80      -0.0109898
      126.0000      439318.20      445397.80      0.0002458
      129.0000      475748.50      445397.80      0.0745966
      132.0000      473343.70      445397.80      0.0654968
      135.0000      461102.60      445397.80      0.0591433
      138.0000      462503.10      445397.80      0.0418620
      141.0000      472041.50      445397.80      0.0766153
      144.0000      451551.00      445397.80      0.0319728
      147.0000      454422.70      445397.80      0.0281179
      150.0000      445678.60      445397.80      0.0376296
      153.0000      438194.80      445397.80      0.0268248
      156.0000      418628.90      445397.80      -0.0069273
      159.0000      412532.20      445397.80      -0.0623160
      162.0000      405711.60      445397.80      -0.0825603
      165.0000      360771.80      445397.80      -0.1488217
      168.0000      357216.20      445397.80      -0.1310102
      171.0000      367374.50      445397.80      -0.1113514
      174.0000      390986.50      445397.80      -0.0499659
      177.0000      405896.80      445397.80      -0.0109379
      180.0000      393097.90      445397.80      -0.0777834
      183.0000      402968.30      445397.80      -0.0216293
      186.0000      401095.80      445397.80      -0.0175343
      189.0000      405303.90      445397.80      -0.0099410
      192.0000      406860.40      445397.80      -0.0144049
      195.0000      401089.20      445397.80      -0.0408770
      198.0000      390579.90      445397.80      -0.0570756
      201.0000      372339.10      445397.80      -0.1256338
      204.0000      361304.40      445397.80      -0.1111722
      207.0000      376589.10      445397.80      -0.1193340
      210.0000      379429.70      445397.80      -0.0948944
      213.0000      402167.80      445397.80      -0.0178909
      216.0000      385198.50      445397.80      -0.0703270
      219.0000      392888.60      445397.80      -0.0379498
      222.0000      443341.60      445397.80      0.0622751
      225.0000      443341.60      445397.80      0.0737530
      228.0000      443341.60      445397.80      0.0729846
      231.0000      445917.30      445397.80      0.0864699
      234.0000      452075.00      445397.80      0.0834385
      237.0000      444198.70      445397.80      0.1078380
      240.0000      450817.70      445397.80      0.0977460
      243.0000      417984.60      445397.80      0.0514367
      246.0000      428345.00      445397.80      0.0303655
      249.0000      419711.90      445397.80      0.0165358
      252.0000      428874.10      445397.80      0.0175387
      255.0000      421675.70      445397.80      -0.0119545
      258.0000      422530.90      445397.80      -0.0365599
      261.0000      423290.50      445397.80      -0.0434457
      264.0000      428307.80      445397.80      -0.0088961
      267.0000      445672.00      445397.80      0.0262271
      270.0000      461185.50      445397.80      0.0592534
      273.0000      472988.20      445397.80      0.0823718
      276.0000      467245.90      445397.80      0.0736107
      279.0000      459692.50      445397.80      0.0598941
      282.0000      455703.20      445397.80      0.0687954
      285.0000      472849.50      445397.80      0.0702065
      288.0000      441596.10      445397.80      0.0266064
      291.0000      434819.60      445397.80      0.0053800
      294.0000      421049.70      445397.80      -0.0108351
      297.0000      424151.20      445397.80      -0.0396970
      300.0000      411503.90      445397.80      -0.0339779
      303.0000      424376.40      445397.80      -0.0109898
      306.0000      443312.30      445397.80      0.0002457
      309.0000      473256.90      445397.80      0.0745966
      312.0000      468432.80      445397.80      0.0654967
      315.0000      476049.30      445397.80      0.0591433
      318.0000      460227.10      445397.80      0.0418620
      321.0000      482713.20      445397.80      0.0766153
      324.0000      464831.40      445397.80      0.0319729
      327.0000      459637.70      445397.80      0.0281179
      330.0000      478833.90      445397.80      0.0376296
      333.0000      478409.00      445397.80      0.0268247
      336.0000      469815.20      445397.80      -0.0069273
      339.0000      426764.20      445397.80      -0.0623160
      342.0000      416891.20      445397.80      -0.0825602
      345.0000      405416.90      445397.80      -0.1488217
      348.0000      427967.30      445397.80      -0.1310102
      351.0000      437434.50      445397.80      -0.1113514
      354.0000      471962.70      445397.80      -0.0499659
      357.0000      495226.20      445397.80      -0.0109379
      360.0000      393097.90      445397.80      -0.0777834
       16     121       19.5900     57.0000      1.00000      0.00000
      0.0000      383260.00      371561.70      -0.0498553
      3.0000      392407.40      371561.70      -0.0272909
      6.0000      398749.60      371561.70      -0.0315287
      9.0000      398749.60      371561.70      -0.0155562
      12.0000      398480.60      371561.70      -0.0190922
      15.0000      397821.30      371561.70      -0.0293911
      18.0000      378899.10      371561.70      -0.0630110
      21.0000      361193.10      371561.70      -0.0981179
      24.0000      346323.50      371561.70      -0.1298914
      27.0000      353272.90      371561.70      -0.0945907
      30.0000      394268.00      371561.70      -0.0445216
      33.0000      398235.10      371561.70      -0.0314928
      36.0000      390606.40      371561.70      -0.0360925
      39.0000      415567.90      371561.70      -0.0020396
      42.0000      415301.80      371561.70      0.0143987
      45.0000      421099.90      371561.70      0.0232059
      48.0000      442339.00      371561.70      0.0721887
      51.0000      437239.30      371561.70      0.0927305
      54.0000      439087.70      371561.70      0.1004013
      57.0000      443135.90      371561.70      0.0940808
      60.0000      429451.00      371561.70      0.0627888
      63.0000      421705.80      371561.70      0.0647877
      66.0000      389898.20      371561.70      0.0117260
      69.0000      394696.10      371561.70      -0.0169065
      72.0000      403884.90      371561.70      0.0237847
      75.0000      381822.80      371561.70      -0.0109294
      78.0000      369163.90      371561.70      -0.0217442
      81.0000      360964.20      371561.70      -0.0559287
      84.0000      382900.60      371561.70      -0.0045928
      87.0000      393886.70      371561.70      0.0380898
      90.0000      406980.50      371561.70      0.0360205
      93.0000      421725.60      371561.70      0.0716826
      96.0000      393986.30      371561.70      0.0424706
      99.0000      386447.90      371561.70      0.0163814
      102.0000      395374.60      371561.70      0.0330606
      105.0000      400294.50      371561.70      0.0347891
      108.0000      386709.10      371561.70      0.0074523
      111.0000      362390.20      371561.70      -0.0399520
      114.0000      375427.90      371561.70      -0.0396973
      117.0000      344690.10      371561.70      -0.0824183
      120.0000      375598.00      371561.70      -0.0422942
      123.0000      368294.40      371561.70      -0.0191409
      126.0000      388262.00      371561.70      0.0001703
      129.0000      384173.70      371561.70      0.0261011
      132.0000      426696.60      371561.70      0.0938240
      135.0000      437504.00      371561.70      0.1149422
      138.0000      421831.60      371561.70      0.1139553
      141.0000      421281.70      371561.70      0.1148385
      144.0000      406328.70      371561.70      0.1097028
      147.0000      392826.90      371561.70      0.0849650
      150.0000      390174.90      371561.70      0.0732751
      153.0000      373702.70      371561.70      0.0345024
      156.0000      372692.50      371561.70      0.0098116
      159.0000      337970.10      371561.70      -0.0699825
      162.0000      331914.80      371561.70      -0.0756612
      165.0000      331108.80      371561.70      -0.0849053
      168.0000      301757.00      371561.70      -0.1432308
      171.0000      300780.40      371561.70      -0.1208195
      174.0000      324290.90      371561.70      -0.0699739
      177.0000      322161.90      371561.70      -0.0463537
      180.0000      327429.30      371561.70      -0.0498553
      183.0000      335182.60      371561.70      -0.0272909
      186.0000      326475.60      371561.70      -0.0315287
      189.0000      337601.50      371561.70      -0.0155563
      192.0000      335168.10      371561.70      -0.0190922
      195.0000      328306.30      371561.70      -0.0293911
      198.0000      321154.90      371561.70      -0.0630110
      201.0000      311848.40      371561.70      -0.0981179
      204.0000      302355.90      371561.70      -0.1298914
      207.0000      320341.10      371561.70      -0.0945907
      210.0000      319071.40      371561.70      -0.0445216
      213.0000      324165.70      371561.70      -0.0314928
      216.0000      327054.40      371561.70      -0.0360925
      219.0000      328521.50      371561.70      -0.0020397
      222.0000      339466.80      371561.70      0.0143987
      225.0000      339980.00      371561.70      0.0232059
      228.0000      354742.00      371561.70      0.0721887
      231.0000      372498.40      371561.70      0.0927305
      234.0000      375547.60      371561.70      0.1004013
      237.0000      367204.30      371561.70      0.0940808
      240.0000      357005.10      371561.70      0.0627888
      243.0000      364434.80      371561.70      0.0647877
      246.0000      355013.90      371561.70      0.0117260
      249.0000      330992.10      371561.70      -0.0169065
      252.0000      350386.80      371561.70      0.0237847
      255.0000      345326.60      371561.70      -0.0109294
      258.0000      348554.90      371561.70      -0.0217441
      261.0000      332072.70      371561.70      -0.0559287
      264.0000      347911.80      371561.70      -0.0045928
      267.0000      367388.90      371561.70      0.0380898
      270.0000      354401.80      371561.70      0.0360205
      273.0000      365851.60      371561.70      0.0716826
      276.0000      370205.20      371561.70      0.0424706
      279.0000      358971.60      371561.70      0.0163814
      282.0000      362704.30      371561.70      0.0330606
      285.0000      359687.90      371561.70      0.0347891
      288.0000      353168.30      371561.70      0.0074523
      291.0000      342470.90      371561.70      -0.0399520
      294.0000      331095.40      371561.70      -0.0396974
      297.0000      329792.10      371561.70      -0.0824184
      300.0000      330014.80      371561.70      -0.0422942
      303.0000      354029.50      371561.70      -0.0191409
      306.0000      349709.30      371561.70      0.0001703
      309.0000      373190.90      371561.70      0.0261010
      312.0000      382268.40      371561.70      0.0938240
      315.0000      388192.90      371561.70      0.1149422
      318.0000      404127.40      371561.70      0.1139553
      321.0000      406741.40      371561.70      0.1148385
      324.0000      419567.30      371561.70      0.1097028
      327.0000      416519.80      371561.70      0.0849650
      330.0000      412306.20      371561.70      0.0732751
      333.0000      401850.90      371561.70      0.0345023
      336.0000      385915.70      371561.70      0.0098116
      339.0000      363000.60      371561.70      -0.0699825
      342.0000      367219.70      371561.70      -0.0756612
      345.0000      363017.60      371561.70      -0.0849053
      348.0000      351290.80      371561.70      -0.1432308
      351.0000      373034.40      371561.70      -0.1208195
      354.0000      390502.10      371561.70      -0.0699739
      357.0000      415559.30      371561.70      -0.0463537
      360.0000      327429.30      371561.70      -0.0498553
       17     121       19.5900     60.0000      1.00000      0.00000
      0.0000      328079.20      327968.80      -0.0845043
      3.0000      314285.40      327968.80      -0.1043349
      6.0000      338475.50      327968.80      -0.0484292
      9.0000      335066.50      327968.80      -0.0511869
      12.0000      339261.00      327968.80      -0.0542966
      15.0000      332629.00      327968.80      -0.0601529
      18.0000      322479.40      327968.80      -0.0939187
      21.0000      319345.00      327968.80      -0.0438028
      24.0000      316794.30      327968.80      0.0159803
      27.0000      284857.50      327968.80      -0.1298138
      30.0000      347145.40      327968.80      -0.0082099
      33.0000      352387.00      327968.80      0.0378984
      36.0000      336876.80      327968.80      -0.0244192
      39.0000      335626.10      327968.80      -0.0273021
      42.0000      354615.40      327968.80      0.0049024
      45.0000      355326.00      327968.80      0.0471110
      48.0000      367996.60      327968.80      0.0693636
      51.0000      375104.40      327968.80      0.0826119
      54.0000      372896.70      327968.80      0.0915731
      57.0000      380394.50      327968.80      0.1044044
      60.0000      381430.80      327968.80      0.1167700
      63.0000      349397.20      327968.80      0.0340727
      66.0000      346700.80      327968.80      0.0186892
      69.0000      346308.70      327968.80      0.0271771
      72.0000      349100.30      327968.80      0.0705346
      75.0000      337440.50      327968.80      -0.0038606
      78.0000      337440.50      327968.80      0.0161158
      81.0000      324221.40      327968.80      -0.0158891
      84.0000      318675.60      327968.80      0.0051311
      87.0000      318821.40      327968.80      -0.0310124
      90.0000      322242.80      327968.80      0.0116192
      93.0000      340734.00      327968.80      0.0470840
      96.0000      344004.80      327968.80      0.0355275
      99.0000      319800.60      327968.80      0.0210407
      102.0000      325470.10      327968.80      -0.0079180
      105.0000      318958.20      327968.80      -0.0202070
      108.0000      340084.40      327968.80      0.0145756
      111.0000      306185.30      327968.80      -0.0470216
      114.0000      308337.70      327968.80      -0.0428501
      117.0000      312518.50      327968.80      -0.0331686
      120.0000      328870.30      327968.80      -0.0174861
      123.0000      323981.10      327968.80      -0.0371712
      126.0000      314266.20      327968.80      -0.0286898
      129.0000      322325.70      327968.80      0.0007091
      132.0000      347473.90      327968.80      0.0836887
      135.0000      366007.60      327968.80      0.1495925
      138.0000      352443.50      327968.80      0.0944911
      141.0000      374270.10      327968.80      0.1390915
      144.0000      340900.90      327968.80      0.0879370
      147.0000      368942.40      327968.80      0.1396732
      150.0000      355504.80      327968.80      0.1003239
      153.0000      326291.70      327968.80      0.0225936
      156.0000      332959.10      327968.80      0.0051530
      159.0000      311367.40      327968.80      -0.0650248
      162.0000      311367.40      327968.80      -0.0696709
      165.0000      288147.80      327968.80      -0.1060050
      168.0000      278605.60      327968.80      -0.1293433
      171.0000      276592.40      327968.80      -0.1403794
      174.0000      279835.90      327968.80      -0.0959127
      177.0000      290565.00      327968.80      -0.0737393
      180.0000      282975.50      327968.80      -0.0845043
      183.0000      282570.20      327968.80      -0.1043348
      186.0000      295325.90      327968.80      -0.0484292
      189.0000      296185.50      327968.80      -0.0511869
      192.0000      289667.50      327968.80      -0.0542966
      195.0000      291602.80      327968.80      -0.0601529
      198.0000      278911.10      327968.80      -0.0939187
      201.0000      313645.60      327968.80      -0.0438029
      204.0000      354053.20      327968.80      0.0159803
      207.0000      289999.80      327968.80      -0.1298138
      210.0000      308695.80      327968.80      -0.0082099
      213.0000      332883.90      327968.80      0.0378984
      216.0000      307054.60      327968.80      -0.0244192
      219.0000      305930.70      327968.80      -0.0273021
      222.0000      308081.50      327968.80      0.0049024
      225.0000      334095.90      327968.80      0.0471110
      228.0000      335842.40      327968.80      0.0693636
      231.0000      337108.00      327968.80      0.0826119
      234.0000      344548.30      327968.80      0.0915731
      237.0000      345177.50      327968.80      0.1044044
      240.0000      351719.40      327968.80      0.1167701
      243.0000      328950.20      327968.80      0.0340727
      246.0000      321295.60      327968.80      0.0186892
      249.0000      326802.00      327968.80      0.0271771
      252.0000      351702.60      327968.80      0.0705346
      255.0000      314774.40      327968.80      -0.0038606
      258.0000      327363.00      327968.80      0.0161158
      261.0000      319313.40      327968.80      -0.0158891
      264.0000      338028.00      327968.80      0.0051311
      267.0000      314362.00      327968.80      -0.0310124
      270.0000      338334.10      327968.80      0.0116193
      273.0000      342976.40      327968.80      0.0470840
      276.0000      332128.30      327968.80      0.0355275
      279.0000      346332.50      327968.80      0.0210406
      282.0000      321911.40      327968.80      -0.0079181
      285.0000      320241.10      327968.80      -0.0202070
      288.0000      321840.40      327968.80      0.0145756
      291.0000      315285.20      327968.80      -0.0470216
      294.0000      315801.10      327968.80      -0.0428501
      297.0000      317897.20      327968.80      -0.0331686
      300.0000      311825.70      327968.80      -0.0174861
      303.0000      303855.60      327968.80      -0.0371712
      306.0000      319030.00      327968.80      -0.0286898
      309.0000      330156.70      327968.80      0.0007091
      312.0000      359157.80      327968.80      0.0836887
      315.0000      383673.70      327968.80      0.1495925
      318.0000      361387.40      327968.80      0.0944911
      321.0000      368725.80      327968.80      0.1390915
      324.0000      368954.70      327968.80      0.0879370
      327.0000      374743.60      327968.80      0.1396731
      330.0000      362680.70      327968.80      0.1003239
      333.0000      341388.40      327968.80      0.0225936
      336.0000      323361.90      327968.80      0.0051529
      339.0000      299289.70      327968.80      -0.0650248
      342.0000      296427.70      327968.80      -0.0696709
      345.0000      296341.40      327968.80      -0.1060050
      348.0000      290912.20      327968.80      -0.1293433
      351.0000      285930.80      327968.80      -0.1403794
      354.0000      312366.80      327968.80      -0.0959128
      357.0000      316393.40      327968.80      -0.0737393
      360.0000      282975.50      327968.80      -0.0845043
       18     121       19.5900     63.0000      1.00000      0.00000
      0.0000      278608.50      280325.90      -0.1086332
      3.0000      273487.90      280325.90      -0.1003881
      6.0000      293388.00      280325.90      -0.0735590
      9.0000      289852.80      280325.90      -0.0472182
      12.0000      306187.30      280325.90      -0.0230059
      15.0000      290477.70      280325.90      -0.0585979
      18.0000      282135.50      280325.90      -0.0869314
      21.0000      277384.70      280325.90      0.0729092
      24.0000      281259.20      280325.90      -0.0621018
      27.0000      293259.10      280325.90      -0.0537210
      30.0000      292552.10      280325.90      -0.0242572
      33.0000      284682.60      280325.90      -0.0580831
      36.0000      287914.50      280325.90      -0.0238900
      39.0000      287358.30      280325.90      -0.0158729
      42.0000      289923.70      280325.90      -0.0049219
      45.0000      292872.10      280325.90      0.0295624
      48.0000      303129.40      280325.90      0.0266790
      51.0000      313861.70      280325.90      0.0869830
      54.0000      326278.60      280325.90      0.1048932
      57.0000      319676.10      280325.90      0.1171287
      60.0000      311726.40      280325.90      0.0906726
      63.0000      304568.50      280325.90      0.0659969
      66.0000      292687.70      280325.90      0.0276995
      69.0000      297490.70      280325.90      0.0537384
      72.0000      300884.20      280325.90      0.0445816
      75.0000      275478.10      280325.90      -0.0080765
      78.0000      283906.60      280325.90      -0.0108225
      81.0000      267528.40      280325.90      -0.0196915
      84.0000      262003.00      280325.90      -0.0165982
      87.0000      273240.00      280325.90      -0.0176965
      90.0000      285001.60      280325.90      0.0398978
      93.0000      297191.40      280325.90      0.0759066
      96.0000      287871.30      280325.90      0.0403517
      99.0000      278269.90      280325.90      0.0190068
      102.0000      271824.10      280325.90      0.0012358
      105.0000      282041.00      280325.90      0.0226549
      108.0000      276094.90      280325.90      0.0065327
      111.0000      270382.00      280325.90      -0.0035027
      114.0000      290905.00      280325.90      0.0160766
      117.0000      269925.40      280325.90      -0.0312282
      120.0000      268969.10      280325.90      0.0053387
      123.0000      267811.00      280325.90      -0.0208690
      126.0000      266068.20      280325.90      -0.0295354
      129.0000      269652.20      280325.90      -0.0268496
      132.0000      273305.60      280325.90      0.0332185
      135.0000      313016.30      280325.90      0.1307715
      138.0000      301803.30      280325.90      0.1445108
      141.0000      292836.20      280325.90      0.1228280
      144.0000      299857.70      280325.90      0.1174420
      147.0000      290998.50      280325.90      0.0917056
      150.0000      267664.10      280325.90      0.0328437
      153.0000      253559.90      280325.90      -0.0274993
      156.0000      257306.00      280325.90      -0.0579314
      159.0000      244460.50      280325.90      -0.0887451
      162.0000      259989.60      280325.90      -0.0952086
      165.0000      247006.60      280325.90      -0.0837270
      168.0000      243749.00      280325.90      -0.1105906
      171.0000      252589.30      280325.90      -0.0789180
      174.0000      249535.20      280325.90      -0.0708525
      177.0000      249035.60      280325.90      -0.0829175
      180.0000      235863.40      280325.90      -0.1086332
      183.0000      243976.60      280325.90      -0.1003881
      186.0000      239617.50      280325.90      -0.0735590
      189.0000      256217.80      280325.90      -0.0472182
      192.0000      253544.40      280325.90      -0.0230059
      195.0000      247547.50      280325.90      -0.0585979
      198.0000      238855.70      280325.90      -0.0869314
      201.0000      329874.30      280325.90      0.0729092
      204.0000      251604.70      280325.90      -0.0621018
      207.0000      244200.00      280325.90      -0.0537210
      210.0000      260225.40      280325.90      -0.0242572
      213.0000      248340.40      280325.90      -0.0580831
      216.0000      263351.10      280325.90      -0.0238900
      219.0000      267612.90      280325.90      -0.0158729
      222.0000      270549.70      280325.90      -0.0049219
      225.0000      286089.50      280325.90      0.0295624
      228.0000      274062.60      280325.90      0.0266790
      231.0000      296361.40      280325.90      0.0869830
      234.0000      293652.70      280325.90      0.1048932
      237.0000      306254.80      280325.90      0.1171286
      240.0000      298872.80      280325.90      0.0906726
      243.0000      291756.50      280325.90      0.0659969
      246.0000      281783.00      280325.90      0.0276995
      249.0000      291103.10      280325.90      0.0537384
      252.0000      282311.80      280325.90      0.0445816
      255.0000      277899.50      280325.90      -0.0080765
      258.0000      267720.60      280325.90      -0.0108226
      261.0000      278841.20      280325.90      -0.0196916
      264.0000      285882.10      280325.90      -0.0165982
      267.0000      273832.20      280325.90      -0.0176965
      270.0000      293982.40      280325.90      0.0398978
      273.0000      301663.70      280325.90      0.0759066
      276.0000      291052.30      280325.90      0.0403517
      279.0000      288713.40      280325.90      0.0190068
      282.0000      285216.60      280325.90      0.0012358
      285.0000      286778.70      280325.90      0.0226549
      288.0000      283742.30      280325.90      0.0065327
      291.0000      283918.70      280325.90      -0.0035027
      294.0000      273908.30      280325.90      0.0160766
      297.0000      268784.50      280325.90      -0.0312282
      300.0000      290424.50      280325.90      0.0053387
      303.0000      276880.10      280325.90      -0.0208690
      306.0000      273848.00      280325.90      -0.0295354
      309.0000      271741.00      280325.90      -0.0268495
      312.0000      302077.00      280325.90      0.0332185
      315.0000      316309.80      280325.90      0.1307715
      318.0000      335907.90      280325.90      0.1445108
      321.0000      333105.10      280325.90      0.1228280
      324.0000      322918.70      280325.90      0.1174420
      327.0000      317712.80      280325.90      0.0917056
      330.0000      308767.60      280325.90      0.0328437
      333.0000      289327.20      280325.90      -0.0274993
      336.0000      268246.30      280325.90      -0.0579313
      339.0000      264310.00      280325.90      -0.0887451
      342.0000      244531.40      280325.90      -0.0952086
      345.0000      264930.00      280325.90      -0.0837270
      348.0000      253192.20      280325.90      -0.1105906
      351.0000      262266.60      280325.90      -0.0789180
      354.0000      270336.00      280325.90      -0.0708524
      357.0000      264180.70      280325.90      -0.0829176
      360.0000      235863.40      280325.90      -0.1086332
       19     121       19.5900     66.0000      1.00000      0.00000
      0.0000      235857.90      235648.20      -0.0439811
      3.0000      227296.60      235648.20      -0.1095457
      6.0000      243716.00      235648.20      -0.0581314
      9.0000      248235.30      235648.20      -0.0512063
      12.0000      249467.40      235648.20      -0.0300527
      15.0000      255294.10      235648.20      -0.0074811
      18.0000      239707.80      235648.20      -0.0269806
      21.0000      239283.70      235648.20      -0.0448262
      24.0000      235170.50      235648.20      -0.0309404
      27.0000      232951.80      235648.20      -0.0437387
      30.0000      239518.30      235648.20      -0.0290796
      33.0000      248835.50      235648.20      0.0180996
      36.0000      235606.30      235648.20      -0.0361781
      39.0000      235020.40      235648.20      -0.0189846
      42.0000      240907.10      235648.20      0.0008448
      45.0000      252631.40      235648.20      0.0677505
      48.0000      253895.50      235648.20      0.0864758
      51.0000      264478.20      235648.20      0.1088521
      54.0000      257909.00      235648.20      0.0949691
      57.0000      268653.20      235648.20      0.1302210
      60.0000      259830.40      235648.20      0.0794891
      63.0000      246487.70      235648.20      0.0631025
      66.0000      242707.00      235648.20      0.0138075
      69.0000      243160.80      235648.20      0.0479229
      72.0000      243515.60      235648.20      0.0772311
      75.0000      231608.70      235648.20      0.0227634
      78.0000      227704.80      235648.20      0.0139833
      81.0000      220002.40      235648.20      -0.0237195
      84.0000      215093.50      235648.20      -0.0275505
      87.0000      236057.00      235648.20      0.0199028
      90.0000      242613.00      235648.20      0.0168761
      93.0000      231944.80      235648.20      0.0344293
      96.0000      235236.40      235648.20      0.0276814
      99.0000      235942.60      235648.20      0.0251518
      102.0000      229203.90      235648.20      -0.0149453
      105.0000      228430.20      235648.20      -0.0385305
      108.0000      229905.70      235648.20      -0.0047621
      111.0000      234262.70      235648.20      0.0419351
      114.0000      229186.20      235648.20      -0.0063927
      117.0000      224677.10      235648.20      -0.0512287
      120.0000      233446.70      235648.20      0.0135969
      123.0000      240413.50      235648.20      0.0445023
      126.0000      215169.60      235648.20      -0.0166882
      129.0000      223323.40      235648.20      -0.0424810
      132.0000      219439.30      235648.20      -0.0333417
      135.0000      232658.70      235648.20      0.0163509
      138.0000      239923.00      235648.20      0.0823986
      141.0000      247134.70      235648.20      0.0944806
      144.0000      239429.60      235648.20      0.1003491
      147.0000      231553.10      235648.20      0.0509517
      150.0000      216634.00      235648.20      -0.0231912
      153.0000      206681.10      235648.20      -0.0349030
      156.0000      202794.90      235648.20      -0.1318196
      159.0000      209078.20      235648.20      -0.1182984
      162.0000      207609.00      235648.20      -0.0040146
      165.0000      210848.90      235648.20      -0.0694756
      168.0000      210917.00      235648.20      -0.0614725
      171.0000      210174.30      235648.20      -0.0233685
      174.0000      211380.00      235648.20      -0.0703931
      177.0000      206768.10      235648.20      -0.0676295
      180.0000      226518.10      235648.20      -0.0439810
      183.0000      203216.40      235648.20      -0.1095457
      186.0000      210995.30      235648.20      -0.0581313
      189.0000      209097.80      235648.20      -0.0512063
      192.0000      216760.80      235648.20      -0.0300526
      195.0000      220863.00      235648.20      -0.0074811
      198.0000      225501.80      235648.20      -0.0269805
      201.0000      216877.00      235648.20      -0.0448262
      204.0000      226420.40      235648.20      -0.0309404
      207.0000      221903.50      235648.20      -0.0437387
      210.0000      221779.20      235648.20      -0.0290796
      213.0000      234095.70      235648.20      0.0180996
      216.0000      220972.30      235648.20      -0.0361781
      219.0000      228967.00      235648.20      -0.0189846
      222.0000      231944.20      235648.20      0.0008448
      225.0000      251182.90      235648.20      0.0677504
      228.0000      258192.40      235648.20      0.0864758
      231.0000      257746.50      235648.20      0.1088521
      234.0000      257294.30      235648.20      0.0949690
      237.0000      262716.90      235648.20      0.1302210
      240.0000      247296.20      235648.20      0.0794891
      243.0000      252628.20      235648.20      0.0631025
      246.0000      232907.70      235648.20      0.0138075
      249.0000      248266.20      235648.20      0.0479229
      252.0000      261520.50      235648.20      0.0772311
      255.0000      247696.50      235648.20      0.0227634
      258.0000      247370.30      235648.20      0.0139833
      261.0000      237259.20      235648.20      -0.0237195
      264.0000      240391.50      235648.20      -0.0275505
      267.0000      241218.40      235648.20      0.0199028
      270.0000      232888.10      235648.20      0.0168761
      273.0000      252268.70      235648.20      0.0344293
      276.0000      245586.20      235648.20      0.0276814
      279.0000      243617.60      235648.20      0.0251518
      282.0000      231475.70      235648.20      -0.0149454
      285.0000      220991.40      235648.20      -0.0385305
      288.0000      235652.40      235648.20      -0.0047620
      291.0000      253529.00      235648.20      0.0419351
      294.0000      235727.20      235648.20      -0.0063927
      297.0000      218992.70      235648.20      -0.0512287
      300.0000      240998.40      235648.20      0.0135968
      303.0000      248607.60      235648.20      0.0445023
      306.0000      245987.90      235648.20      -0.0166882
      309.0000      225006.40      235648.20      -0.0424809
      312.0000      233665.30      235648.20      -0.0333417
      315.0000      243752.30      235648.20      0.0163509
      318.0000      268100.00      235648.20      0.0823986
      321.0000      266428.20      235648.20      0.0944806
      324.0000      277631.90      235648.20      0.1003491
      327.0000      262269.30      235648.20      0.0509517
      330.0000      242405.70      235648.20      -0.0231912
      333.0000      247470.40      235648.20      -0.0349030
      336.0000      204800.80      235648.20      -0.1318196
      339.0000      204800.80      235648.20      -0.1182984
      342.0000      261846.90      235648.20      -0.0040146
      345.0000      226826.30      235648.20      -0.0694756
      348.0000      230750.10      235648.20      -0.0614725
      351.0000      250093.00      235648.20      -0.0233685
      354.0000      226160.30      235648.20      -0.0703931
      357.0000      232465.20      235648.20      -0.0676295
      360.0000      226518.10      235648.20      -0.0439810
       20     121       19.5900     69.0000      1.00000      0.00000
      0.0000      250433.00      197436.00      -0.0325371
      3.0000      198499.20      197436.00      -0.1165774
      6.0000      295200.70      197436.00      0.0970098
      9.0000      213091.80      197436.00      -0.0767832
      12.0000      204758.70      197436.00      -0.0975471
      15.0000      209542.30      197436.00      -0.0388325
      18.0000      209151.60      197436.00      -0.0341947
      21.0000      210755.70      197436.00      -0.0178043
      24.0000      201515.70      197436.00      -0.0415483
      27.0000      195928.70      197436.00      -0.0748329
      30.0000      201061.60      197436.00      -0.0348682
      33.0000      200304.70      197436.00      -0.0309048
      36.0000      198476.30      197436.00      -0.0444026
      39.0000      185320.00      197436.00      -0.0761152
      42.0000      193711.80      197436.00      -0.0524519
      45.0000      202320.70      197436.00      0.0140595
      48.0000      209054.90      197436.00      0.0444525
      51.0000      200705.50      197436.00      0.0189612
      54.0000      205770.10      197436.00      0.0640749
      57.0000      225762.80      197436.00      0.0985094
      60.0000      209704.70      197436.00      0.0753952
      63.0000      203606.50      197436.00      0.0584305
      66.0000      210443.90      197436.00      0.0634001
      69.0000      214993.80      197436.00      0.0996878
      72.0000      199458.00      197436.00      0.0781250
      75.0000      206503.90      197436.00      0.0966612
      78.0000      210344.50      197436.00      0.1223483
      81.0000      206827.10      197436.00      0.0573069
      84.0000      197216.00      197436.00      0.0718220
      87.0000      193180.40      197436.00      0.0612323
      90.0000      200906.50      197436.00      0.0791325
      93.0000      192973.70      197436.00      0.0207417
      96.0000      187863.60      197436.00      0.0085962
      99.0000      205133.20      197436.00      0.0389829
      102.0000      204305.10      197436.00      0.0485825
      105.0000      209364.50      197436.00      0.0680434
      108.0000      189539.90      197436.00      0.0168578
      111.0000      189694.50      197436.00      0.0058794
      114.0000      185145.70      197436.00      -0.0052523
      117.0000      181979.10      197436.00      -0.0267112
      120.0000      187969.40      197436.00      0.0146840
      123.0000      186169.20      197436.00      -0.0005697
      126.0000      181599.60      197436.00      -0.0326318
      129.0000      181454.00      197436.00      -0.0100296
      132.0000      182692.80      197436.00      -0.0372287
      135.0000      185881.40      197436.00      -0.0103205
      138.0000      185484.50      197436.00      0.0235627
      141.0000      188583.30      197436.00      0.0435150
      144.0000      187278.70      197436.00      0.0333482
      147.0000      177105.30      197436.00      -0.0188300
      150.0000      162850.30      197436.00      -0.0849088
      153.0000      162086.20      197436.00      -0.0949725
      156.0000      169300.20      197436.00      -0.0742929
      159.0000      169300.20      197436.00      -0.0279511
      162.0000      172748.80      197436.00      -0.0556638
      165.0000      171309.80      197436.00      -0.0592239
      168.0000      168033.70      197436.00      -0.0664625
      171.0000      167559.30      197436.00      -0.0728666
      174.0000      168643.60      197436.00      -0.0484988
      177.0000      179618.50      197436.00      -0.0291112
      180.0000      166639.50      197436.00      -0.0325371
      183.0000      174821.00      197436.00      -0.1165774
      186.0000      174990.30      197436.00      0.0970098
      189.0000      174831.20      197436.00      -0.0767832
      192.0000      172346.70      197436.00      -0.0975471
      195.0000      189329.00      197436.00      -0.0388325
      198.0000      189998.00      197436.00      -0.0341947
      201.0000      193496.30      197436.00      -0.0178043
      204.0000      191176.20      197436.00      -0.0415483
      207.0000      182012.10      197436.00      -0.0748329
      210.0000      191659.50      197436.00      -0.0348682
      213.0000      192703.70      197436.00      -0.0309047
      216.0000      187960.60      197436.00      -0.0444026
      219.0000      186897.90      197436.00      -0.0761152
      222.0000      187152.50      197436.00      -0.0524519
      225.0000      204060.00      197436.00      0.0140595
      228.0000      208479.50      197436.00      0.0444525
      231.0000      205640.40      197436.00      0.0189612
      234.0000      217628.80      197436.00      0.0640749
      237.0000      210249.70      197436.00      0.0985094
      240.0000      216416.40      197436.00      0.0753952
      243.0000      215060.60      197436.00      0.0584305
      246.0000      209201.90      197436.00      0.0634001
      249.0000      218298.80      197436.00      0.0996878
      252.0000      225221.00      197436.00      0.0781250
      255.0000      224642.10      197436.00      0.0966612
      258.0000      230345.00      197436.00      0.1223483
      261.0000      207149.60      197436.00      0.0573069
      264.0000      222839.60      197436.00      0.0718220
      267.0000      222426.30      197436.00      0.0612323
      270.0000      220878.80      197436.00      0.0791325
      273.0000      205309.30      197436.00      0.0207417
      276.0000      205551.40      197436.00      0.0085962
      279.0000      198628.70      197436.00      0.0389829
      282.0000      203071.90      197436.00      0.0485825
      285.0000      205078.70      197436.00      0.0680434
      288.0000      205720.80      197436.00      0.0168578
      291.0000      200767.90      197436.00      0.0058794
      294.0000      200960.90      197436.00      -0.0052523
      297.0000      195434.30      197436.00      -0.0267112
      300.0000      205390.90      197436.00      0.0146840
      303.0000      200888.70      197436.00      -0.0005697
      306.0000      192622.80      197436.00      -0.0326318
      309.0000      201656.60      197436.00      -0.0100296
      312.0000      188995.10      197436.00      -0.0372286
      315.0000      196067.80      197436.00      -0.0103205
      318.0000      209802.40      197436.00      0.0235627
      321.0000      214055.70      197436.00      0.0435150
      324.0000      210970.30      197436.00      0.0333482
      327.0000      200655.20      197436.00      -0.0188300
      330.0000      189188.60      197436.00      -0.0849088
      333.0000      185530.30      197436.00      -0.0949725
      336.0000      185530.30      197436.00      -0.0742929
      339.0000      203123.10      197436.00      -0.0279511
      342.0000      188041.50      197436.00      -0.0556638
      345.0000      187482.10      197436.00      -0.0592238
      348.0000      187323.10      197436.00      -0.0664625
      351.0000      184555.10      197436.00      -0.0728666
      354.0000      191869.50      197436.00      -0.0484988
      357.0000      187274.20      197436.00      -0.0291112
      360.0000      166639.50      197436.00      -0.0325371
