      20    2420    0     datakind beginning-row linenumbers
MSCD Version 1.00 Yufeng Chen and Michel A Van Hove
Lawrence Berkeley National Laboratory (LBNL), Berkeley, CA 94720
Copyright (c) Van Hove Group 1997. All rights reserved
--------------------------------------------------------------
angle-resolved photoemission extended fine structure (ARPEFS)
experimental data for Fe 2p3/2 from Fe on STO(100)  excited with hv=1810eV

provided by Pancotti et al. (LNLS in 9, June 2010)
   initial angular momentum (l) = 1
   photon polarization angle (polar, azimuth) = (  30.0,   0.0 ) (deg)
   sample temperature = 300 K

   photoemission angular scan curves
     (curve point theta phi weightc weighte//k intensity chiexp)
      20     2420       1       20     121     2420
       1     121       19.5900     12.0000      1.00000      0.00000
      0.0000      345581.20      337240.10      -0.0820050
      3.0000      361088.80      337240.10      -0.0501925
      6.0000      361148.40      337240.10      -0.0547211
      9.0000      373835.00      337240.10      -0.0248418
      12.0000      383029.50      337240.10      -0.0080455
      15.0000      387089.50      337240.10      -0.0047605
      18.0000      396646.30      337240.10      0.0172841
      21.0000      412200.50      337240.10      0.0550463
      24.0000      411341.00      337240.10      0.0469470
      27.0000      400088.00      337240.10      0.0132908
      30.0000      402322.00      337240.10      0.0186065
      33.0000      405029.80      337240.10      0.0247363
      36.0000      388051.90      337240.10      -0.0225192
      39.0000      390046.70      337240.10      -0.0202883
      42.0000      390417.20      337240.10      -0.0177579
      45.0000      384678.90      337240.10      -0.0318497
      48.0000      391286.20      337240.10      -0.0184360
      51.0000      386417.00      337240.10      -0.0314687
      54.0000      393853.90      337240.10      -0.0096288
      57.0000      401761.00      337240.10      0.0113143
      60.0000      417418.50      337240.10      0.0487188
      63.0000      429288.40      337240.10      0.0797695
      66.0000      428387.80      337240.10      0.0821148
      69.0000      432371.80      337240.10      0.0940193
      72.0000      435328.50      337240.10      0.1009052
      75.0000      427650.20      337240.10      0.0845264
      78.0000      423854.50      337240.10      0.0806513
      81.0000      416734.80      337240.10      0.0648872
      84.0000      414898.40      337240.10      0.0607879
      87.0000      396682.70      337240.10      0.0186939
      90.0000      399032.30      337240.10      0.0312076
      93.0000      395218.60      337240.10      0.0240380
      96.0000      381463.80      337240.10      -0.0100244
      99.0000      368824.00      337240.10      -0.0370894
      102.0000      363814.40      337240.10      -0.0434263
      105.0000      355869.90      337240.10      -0.0616390
      108.0000      353725.90      337240.10      -0.0648123
      111.0000      361721.30      337240.10      -0.0365641
      114.0000      345768.20      337240.10      -0.0721230
      117.0000      352869.20      337240.10      -0.0501372
      120.0000      357929.50      337240.10      -0.0327108
      123.0000      354030.20      337240.10      -0.0351401
      126.0000      347818.00      337240.10      -0.0448458
      129.0000      345498.10      337240.10      -0.0479428
      132.0000      347452.10      337240.10      -0.0376611
      135.0000      349622.20      337240.10      -0.0225921
      138.0000      344050.70      337240.10      -0.0308841
      141.0000      346752.90      337240.10      -0.0195618
      144.0000      331301.80      337240.10      -0.0574876
      147.0000      331301.80      337240.10      -0.0480196
      150.0000      332054.40      337240.10      -0.0388433
      153.0000      336212.00      337240.10      -0.0228463
      156.0000      332388.20      337240.10      -0.0270128
      159.0000      321037.40      337240.10      -0.0505146
      162.0000      316254.60      337240.10      -0.0581148
      165.0000      319913.70      337240.10      -0.0431381
      168.0000      316193.70      337240.10      -0.0466710
      171.0000      316624.10      337240.10      -0.0354461
      174.0000      313670.00      337240.10      -0.0382605
      177.0000      318527.00      337240.10      -0.0188911
      180.0000      317619.20      337240.10      -0.0132366
      183.0000      317897.70      337240.10      -0.0024554
      186.0000      321056.00      337240.10      0.0133440
      189.0000      317249.80      337240.10      0.0061613
      192.0000      330245.90      337240.10      0.0567697
      195.0000      324685.00      337240.10      0.0486807
      198.0000      317273.30      337240.10      0.0300273
      201.0000      325200.70      337240.10      0.0610076
      204.0000      332406.50      337240.10      0.0941571
      207.0000      311006.10      337240.10      0.0324133
      210.0000      310266.20      337240.10      0.0342870
      213.0000      311793.70      337240.10      0.0443847
      216.0000      306795.80      337240.10      0.0365124
      219.0000      292660.00      337240.10      -0.0039869
      222.0000      303755.70      337240.10      0.0369435
      225.0000      294465.30      337240.10      0.0096945
      228.0000      287784.00      337240.10      -0.0052578
      231.0000      285920.90      337240.10      -0.0060034
      234.0000      286447.20      337240.10      -0.0023812
      237.0000      281978.50      337240.10      -0.0140976
      240.0000      274360.90      337240.10      -0.0339290
      243.0000      266688.40      337240.10      -0.0572470
      246.0000      368844.80      337240.10      0.3047790
      249.0000      285009.90      337240.10      0.0110765
      252.0000      284626.30      337240.10      0.0152957
      255.0000      285501.00      337240.10      0.0202085
      258.0000      291705.50      337240.10      0.0413502
      261.0000      285189.70      337240.10      0.0202050
      264.0000      295516.60      337240.10      0.0609495
      267.0000      297742.40      337240.10      0.0683512
      270.0000      298387.30      337240.10      0.0679432
      273.0000      282055.10      337240.10      0.0101945
      276.0000      289813.70      337240.10      0.0394831
      279.0000      281495.00      337240.10      0.0065474
      282.0000      279716.00      337240.10      -0.0042586
      285.0000      278770.90      337240.10      -0.0083643
      288.0000      263749.40      337240.10      -0.0625715
      291.0000      272174.00      337240.10      -0.0383442
      294.0000      278476.70      337240.10      -0.0222317
      297.0000      273027.60      337240.10      -0.0437463
      300.0000      272671.70      337240.10      -0.0484069
      303.0000      265270.60      337240.10      -0.0821563
      306.0000      281362.40      337240.10      -0.0342845
      309.0000      286572.60      337240.10      -0.0207475
      312.0000      285778.80      337240.10      -0.0297567
      315.0000      282946.00      337240.10      -0.0500170
      318.0000      294503.50      337240.10      -0.0208191
      321.0000      298322.70      337240.10      -0.0145839
      324.0000      297046.30      337240.10      -0.0279361
      327.0000      299728.80      337240.10      -0.0323662
      330.0000      307833.90      337240.10      -0.0174725
      333.0000      317518.40      337240.10      0.0046591
      336.0000      309487.10      337240.10      -0.0325733
      339.0000      318529.00      337240.10      -0.0198620
      342.0000      324869.60      337240.10      -0.0131847
      345.0000      336224.90      337240.10      0.0102952
      348.0000      349995.00      337240.10      0.0361430
      351.0000      354239.20      337240.10      0.0305390
      354.0000      361906.50      337240.10      0.0378911
      357.0000      369178.50      337240.10      0.0450611

       2     121       19.5900     15.0000      1.00000      0.00000
      0.0000      352021.80      313417.80      -0.1252858
      3.0000      359992.50      313417.80      -0.1109690
      6.0000      370944.40      313417.80      -0.0878573
      9.0000      376617.80      313417.80      -0.0758420
      12.0000      386757.30      313417.80      -0.0538081
      15.0000      406842.10      313417.80      -0.0086082
      18.0000      425498.50      313417.80      0.0348130
      21.0000      428053.60      313417.80      0.0407105
      24.0000      441264.40      313417.80      0.0713524
      27.0000      447955.10      313417.80      0.0854921
      30.0000      448441.70      313417.80      0.0867344
      33.0000      444435.60      313417.80      0.0784727
      36.0000      443253.70      313417.80      0.0757126
      39.0000      426545.20      313417.80      0.0349317
      42.0000      415198.30      313417.80      0.0093667
      45.0000      407336.00      313417.80      -0.0068573
      48.0000      410537.50      313417.80      0.0023055
      51.0000      404120.10      313417.80      -0.0120098
      54.0000      403022.20      313417.80      -0.0110347
      57.0000      422050.20      313417.80      0.0399700
      60.0000      427730.50      313417.80      0.0567076
      63.0000      431257.30      313417.80      0.0686412
      66.0000      449927.10      313417.80      0.1206956
      69.0000      438482.90      313417.80      0.0979277
      72.0000      447883.10      313417.80      0.1257253
      75.0000      437988.40      313417.80      0.1058509
      78.0000      420656.80      313417.80      0.0690720
      81.0000      404626.10      313417.80      0.0348049
      84.0000      392769.80      313417.80      0.0093039
      87.0000      362572.80      313417.80      -0.0628354
      90.0000      345879.20      313417.80      -0.0987897
      93.0000      342057.20      313417.80      -0.1023350
      96.0000      330157.30      313417.80      -0.1286904
      99.0000      323701.10      313417.80      -0.1395366
      102.0000      331416.60      313417.80      -0.1108899
      105.0000      332088.90      313417.80      -0.1020476
      108.0000      339636.30      313417.80      -0.0755247
      111.0000      345368.00      313417.80      -0.0518628
      114.0000      355923.70      313417.80      -0.0130931
      117.0000      350358.70      313417.80      -0.0202160
      120.0000      353268.00      313417.80      -0.0044493
      123.0000      355511.90      313417.80      0.0116011
      126.0000      345080.90      313417.80      -0.0075237
      129.0000      345881.60      313417.80      0.0038178
      132.0000      346740.40      313417.80      0.0150048
      135.0000      344567.40      313417.80      0.0194417
      138.0000      336352.70      313417.80      0.0064087
      141.0000      338697.90      313417.80      0.0230873
      144.0000      335882.40      313417.80      0.0241765
      147.0000      328399.50      313417.80      0.0129109
      150.0000      319947.90      313417.80      -0.0015837
      153.0000      319512.70      313417.80      0.0068767
      156.0000      314669.00      313417.80      0.0016519
      159.0000      304493.00      313417.80      -0.0189205
      162.0000      306840.00      313417.80      0.0004010
      165.0000      302659.30      313417.80      -0.0033347
      168.0000      295944.80      313417.80      -0.0150689
      171.0000      278462.10      313417.80      -0.0615616
      174.0000      280719.70      313417.80      -0.0427515
      177.0000      261517.70      313417.80      -0.0993564
      180.0000      258887.30      313417.80      -0.0986467
      183.0000      262488.40      313417.80      -0.0744142
      186.0000      262280.50      313417.80      -0.0645220
      189.0000      260276.50      313417.80      -0.0626183
      192.0000      262705.10      313417.80      -0.0433916
      195.0000      260179.70      313417.80      -0.0407780
      198.0000      270089.80      313417.80      0.0065039
      201.0000      277281.00      313417.80      0.0430460
      204.0000      273674.20      313417.80      0.0406025
      207.0000      272205.40      313417.80      0.0471153
      210.0000      275311.10      313417.80      0.0694728
      213.0000      274446.10      313417.80      0.0754225
      216.0000      271301.50      313417.80      0.0738857
      219.0000      272225.90      313417.80      0.0889060
      222.0000      253276.90      313417.80      0.0217283
      225.0000      263400.00      313417.80      0.0706491
      228.0000      254179.90      313417.80      0.0425235
      231.0000      251531.40      313417.80      0.0409575
      234.0000      251146.20      313417.80      0.0463114
      237.0000      237484.90      313417.80      -0.0046187
      240.0000      232641.00      313417.80      -0.0175547
      243.0000      249443.20      313417.80      0.0606874
      246.0000      246718.80      313417.80      0.0538341
      249.0000      243731.90      313417.80      0.0454327
      252.0000      248518.00      313417.80      0.0717659
      255.0000      238985.10      313417.80      0.0351748
      258.0000      242262.40      313417.80      0.0513675
      261.0000      238981.20      313417.80      0.0390694
      264.0000      235232.30      313417.80      0.0257734
      267.0000      227145.70      313417.80      -0.0080885
      270.0000      229717.20      313417.80      0.0020598
      273.0000      232351.40      313417.80      0.0127590
      276.0000      229980.90      313417.80      0.0024679
      279.0000      215131.90      313417.80      -0.0640393
      282.0000      221149.40      313417.80      -0.0420154
      285.0000      227731.90      313417.80      -0.0171304
      288.0000      210141.80      313417.80      -0.0958498
      291.0000      220967.90      313417.80      -0.0545501
      294.0000      225657.80      313417.80      -0.0418176
      297.0000      217635.70      313417.80      -0.0821235
      300.0000      228425.40      313417.80      -0.0428694
      303.0000      228452.20      313417.80      -0.0515120
      306.0000      242646.10      313417.80      -0.0034755
      309.0000      249929.60      313417.80      0.0163846
      312.0000      250948.60      313417.80      0.0103370
      315.0000      258180.80      313417.80      0.0263112
      318.0000      265531.60      313417.80      0.0409292
      321.0000      267750.80      313417.80      0.0362339
      324.0000      268859.80      313417.80      0.0267199
      327.0000      269532.30      313417.80      0.0129313
      330.0000      282936.60      313417.80      0.0456283
      333.0000      284451.40      313417.80      0.0349745
      336.0000      298199.80      313417.80      0.0673073
      339.0000      284877.50      313417.80      0.0004982
      342.0000      289532.00      313417.80      -0.0025485
      345.0000      288693.70      313417.80      -0.0231152
      348.0000      295667.60      313417.80      -0.0184296
      351.0000      296372.90      313417.80      -0.0370506
      354.0000      304250.80      313417.80      -0.0322665
      357.0000      309879.50      313417.80      -0.0338254

       3     121       19.5900     18.0000      1.00000      0.00000
      0.0000      332828.60      329178.30      -0.0751236
      3.0000      330162.30      329178.30      -0.0948268
      6.0000      319241.90      329178.30      -0.1367603
      9.0000      364702.90      329178.30      -0.0273828
      12.0000      383940.00      329178.30      0.0124339
      15.0000      380321.90      329178.30      -0.0065934
      18.0000      438489.00      329178.30      0.1337676
      21.0000      446300.80      329178.30      0.1427184
      24.0000      423218.20      329178.30      0.0754313
      27.0000      423563.30      329178.30      0.0695935
      30.0000      421955.80      329178.30      0.0580697
      33.0000      452637.00      329178.30      0.1275536
      36.0000      404919.10      329178.30      0.0042672
      39.0000      418517.50      329178.30      0.0343925
      42.0000      434383.40      329178.30      0.0688218
      45.0000      402047.70      329178.30      -0.0145586
      48.0000      367566.00      329178.30      -0.1004462
      51.0000      396695.60      329178.30      -0.0302459
      54.0000      398256.50      329178.30      -0.0286430
      57.0000      412441.50      329178.30      0.0046261
      60.0000      407563.90      329178.30      -0.0064136
      63.0000      420025.30      329178.30      0.0248048
      66.0000      447254.10      329178.30      0.0910274
      69.0000      451417.40      329178.30      0.1022745
      72.0000      431297.40      329178.30      0.0561561
      75.0000      399518.90      329178.30      -0.0191275
      78.0000      381817.70      329178.30      -0.0611423
      81.0000      381801.40      329178.30      -0.0583393
      84.0000      364478.40      329178.30      -0.0966699
      87.0000      342766.40      329178.30      -0.1469952
      90.0000      330904.00      329178.30      -0.1740083
      93.0000      349650.80      329178.30      -0.1228485
      96.0000      353816.90      329178.30      -0.1065782
      99.0000      328333.10      329178.30      -0.1664456
      102.0000      334292.30      329178.30      -0.1473864
      105.0000      368636.60      329178.30      -0.0534104
      108.0000      367724.00      329178.30      -0.0483262
      111.0000      398966.30      329178.30      0.0392721
      114.0000      409806.10      329178.30      0.0743059
      117.0000      398844.90      329178.30      0.0541571
      120.0000      382133.10      329178.30      0.0190550
      123.0000      389344.10      329178.30      0.0462107
      126.0000      352481.30      329178.30      -0.0456263
      129.0000      395316.50      329178.30      0.0807163
      132.0000      380388.70      329178.30      0.0502543
      135.0000      353007.50      329178.30      -0.0169918
      138.0000      375975.30      329178.30      0.0563049
      141.0000      372866.70      329178.30      0.0588508
      144.0000      386236.00      329178.30      0.1085456
      147.0000      363614.80      329178.30      0.0534124
      150.0000      358773.40      329178.30      0.0497471
      153.0000      359632.60      329178.30      0.0645750
      156.0000      370583.40      329178.30      0.1093287
      159.0000      328567.10      329178.30      -0.0066521
      162.0000      348672.80      329178.30      0.0655764
      165.0000      332887.20      329178.30      0.0299085
      168.0000      344569.70      329178.30      0.0783560
      171.0000      317070.60      329178.30      0.0025381
      174.0000      298126.30      329178.30      -0.0466202
      177.0000      297351.20      329178.30      -0.0369295
      180.0000      288306.40      329178.30      -0.0554322
      183.0000      293095.80      329178.30      -0.0297998
      186.0000      282270.10      329178.30      -0.0546879
      189.0000      280790.70      329178.30      -0.0476546
      192.0000      279788.30      329178.30      -0.0404732
      195.0000      288206.50      329178.30      -0.0015214
      198.0000      292899.20      329178.30      0.0265472
      201.0000      292756.00      329178.30      0.0384965
      204.0000      284737.30      329178.30      0.0205610
      207.0000      292562.70      329178.30      0.0587747
      210.0000      294570.70      329178.30      0.0778021
      213.0000      291002.30      329178.30      0.0765319
      216.0000      299660.20      329178.30      0.1187365
      219.0000      290169.60      329178.30      0.0927218
      222.0000      283086.60      329178.30      0.0765828
      225.0000      283160.10      329178.30      0.0870545
      228.0000      268177.40      329178.30      0.0371894
      231.0000      260393.20      329178.30      0.0142073
      234.0000      258740.90      329178.30      0.0160546
      237.0000      252817.40      329178.30      0.0000526
      240.0000      254826.70      329178.30      0.0131039
      243.0000      246611.70      329178.30      -0.0147061
      246.0000      247059.80      329178.30      -0.0070929
      249.0000      249845.80      329178.30      0.0085921
      252.0000      245710.00      329178.30      -0.0058961
      255.0000      242729.20      329178.30      -0.0156962
      258.0000      240614.70      329178.30      -0.0213884
      261.0000      230569.70      329178.30      -0.0611898
      264.0000      230569.70      329178.30      -0.0622805
      267.0000      224074.40      329178.30      -0.0894686
      270.0000      220303.40      329178.30      -0.1051607
      273.0000      212887.00      329178.30      -0.1376406
      276.0000      212631.80      329178.30      -0.1429203
      279.0000      216816.70      329178.30      -0.1297938
      282.0000      210817.10      329178.30      -0.1574144
      285.0000      217491.80      329178.30      -0.1367366
      288.0000      218136.30      329178.30      -0.1417544
      291.0000      220414.00      329178.30      -0.1396766
      294.0000      236569.70      329178.30      -0.0842643
      297.0000      251673.90      329178.30      -0.0365559
      300.0000      249869.90      329178.30      -0.0553526
      303.0000      271814.30      329178.30      0.0156458
      306.0000      285243.80      329178.30      0.0525898
      309.0000      289297.20      329178.30      0.0516038
      312.0000      304777.00      329178.30      0.0902695
      315.0000      305979.50      329178.30      0.0778953
      318.0000      314014.50      329178.30      0.0883032
      321.0000      316852.20      329178.30      0.0777801
      324.0000      331844.40      329178.30      0.1072400
      327.0000      333048.10      329178.30      0.0908324
      330.0000      337700.60      329178.30      0.0844940
      333.0000      349014.60      329178.30      0.0965350
      336.0000      358326.00      329178.30      0.1012603
      339.0000      338770.70      329178.30      0.0192678
      342.0000      355022.70      329178.30      0.0442973
      345.0000      351922.30      329178.30      0.0100238
      348.0000      354028.80      329178.30      -0.0082862
      351.0000      345997.90      329178.30      -0.0531650
      354.0000      345498.50      329178.30      -0.0778163
      357.0000      346121.10      329178.30      -0.1005688

       4     121       19.5900     21.0000      1.00000      0.00000
      0.0000      323274.40      332658.30      -0.0397936
      3.0000      345628.30      332658.30      0.0057388
      6.0000      345331.90      332658.30      -0.0124873
      9.0000      332519.40      332658.30      -0.0591276
      12.0000      339821.30      332658.30      -0.0498568
      15.0000      371182.20      332658.30      0.0209689
      18.0000      386412.10      332658.30      0.0499063
      21.0000      380618.80      332658.30      0.0273961
      24.0000      408491.70      332658.30      0.0926021
      27.0000      421530.80      332658.30      0.1135590
      30.0000      389365.30      332658.30      0.0202006
      33.0000      408249.80      332658.30      0.0662642
      36.0000      411170.70      332658.30      0.0667499
      39.0000      371626.30      332658.30      -0.0451977
      42.0000      363101.40      332658.30      -0.0710908
      45.0000      392134.90      332658.30      0.0029510
      48.0000      376950.10      332658.30      -0.0404955
      51.0000      399708.20      332658.30      0.0103360
      54.0000      399708.20      332658.30      0.0093465
      57.0000      363820.00      332658.30      -0.0794393
      60.0000      426102.10      332658.30      0.0742613
      63.0000      404725.00      332658.30      0.0160200
      66.0000      429269.40      332658.30      0.0797407
      69.0000      429269.40      332658.30      0.0831826
      72.0000      414499.70      332658.30      0.0440351
      75.0000      388547.50      332658.30      -0.0232252
      78.0000      368849.10      332658.30      -0.0684673
      81.0000      354789.00      332658.30      -0.0994838
      84.0000      373224.20      332658.30      -0.0537711
      87.0000      337022.70      332658.30      -0.1454899
      90.0000      355992.20      332658.30      -0.0907906
      93.0000      352528.10      332658.30      -0.0943565
      96.0000      345881.90      332658.30      -0.1114887
      99.0000      362878.40      332658.30      -0.0652476
      102.0000      371002.70      332658.30      -0.0358217
      105.0000      328070.90      332658.30      -0.1416929
      108.0000      383739.00      332658.30      0.0050187
      111.0000      401806.90      332658.30      0.0577481
      114.0000      374843.80      332658.30      -0.0032752
      117.0000      270898.20      332658.30      -0.2742194
      120.0000      376541.70      332658.30      0.0106456
      123.0000      396548.30      332658.30      0.0719979
      126.0000      384433.30      332658.30      0.0508536
      129.0000      364868.50      332658.30      0.0044714
      132.0000      371664.70      332658.30      0.0270632
      135.0000      364668.60      332658.30      0.0167253
      138.0000      354132.70      332658.30      -0.0005922
      141.0000      372294.10      332658.30      0.0580557
      144.0000      403443.90      332658.30      0.1526098
      147.0000      368315.30      332658.30      0.0631029
      150.0000      397338.30      332658.30      0.1609239
      153.0000      397338.30      332658.30      0.1694397
      156.0000      397338.30      332658.30      0.1769518
      159.0000      389969.30      332658.30      0.1685068
      162.0000      345119.20      332658.30      0.0471220
      165.0000      366381.00      332658.30      0.1193732
      168.0000      353027.50      332658.30      0.0862522
      171.0000      339929.50      332658.30      0.0592422
      174.0000      339929.50      332658.30      0.0721973
      177.0000      339929.50      332658.30      0.0793953
      180.0000      294671.00      332658.30      -0.0573030
      183.0000      302290.10      332658.30      -0.0196925
      186.0000      266501.00      332658.30      -0.1253786
      189.0000      262711.30      332658.30      -0.1331662
      192.0000      270208.60      332658.30      -0.1011459
      195.0000      276359.40      332658.30      -0.0678766
      198.0000      276693.20      332658.30      -0.0569793
      201.0000      282231.80      332658.30      -0.0332828
      204.0000      288226.30      332658.30      -0.0042881
      207.0000      284029.90      332658.30      -0.0060044
      210.0000      278280.40      332658.30      -0.0175707
      213.0000      298333.10      332658.30      0.0577554
      216.0000      284207.70      332658.30      0.0160022
      219.0000      250522.40      332658.30      -0.0936335
      222.0000      282160.10      332658.30      0.0273061
      225.0000      249209.40      332658.30      -0.0901706
      228.0000      278894.90      332658.30      0.0263133
      231.0000      247420.60      332658.30      -0.0802390
      234.0000      269715.20      332658.30      0.0064465
      237.0000      254031.90      332658.30      -0.0509295
      240.0000      261426.70      332658.30      -0.0168611
      243.0000      265115.40      332658.30      0.0044605
      246.0000      256979.40      332658.30      -0.0253570
      249.0000      261448.70      332658.30      -0.0090245
      252.0000      287221.30      332658.30      0.0937855
      255.0000      279308.20      332658.30      0.0680412
      258.0000      265502.90      332658.30      0.0130334
      261.0000      273722.60      332658.30      0.0415590
      264.0000      237894.40      332658.30      -0.0927356
      267.0000      270487.90      332658.30      0.0320889
      270.0000      245751.30      332658.30      -0.0678864
      273.0000      239761.20      332658.30      -0.0956456
      276.0000      243599.20      332658.30      -0.0812870
      279.0000      244065.10      332658.30      -0.0825681
      282.0000      248735.10      332658.30      -0.0744189
      285.0000      237269.50      332658.30      -0.1243079
      288.0000      257876.90      332658.30      -0.0513370
      291.0000      277249.80      332658.30      0.0119285
      294.0000      259192.60      332658.30      -0.0667417
      297.0000      300454.70      332658.30      0.0706651
      300.0000      305343.40      332658.30      0.0801202
      303.0000      319472.60      332658.30      0.1164439
      306.0000      289857.50      332658.30      -0.0039005
      309.0000      296025.70      332658.30      0.0039741
      312.0000      308074.60      332658.30      0.0338487
      315.0000      289336.80      332658.30      -0.0445643
      318.0000      311821.90      332658.30      0.0091954
      321.0000      321007.60      332658.30      0.0229143
      324.0000      319673.50      332658.30      0.0046489
      327.0000      346027.00      332658.30      0.0658056
      330.0000      342174.10      332658.30      0.0304889
      333.0000      354934.20      332658.30      0.0502530
      336.0000      341986.10      332658.30      -0.0050531
      339.0000      372735.90      332658.30      0.0592841
      342.0000      397176.80      332658.30      0.1015806
      345.0000      383212.40      332658.30      0.0423166
      348.0000      363734.20      332658.30      -0.0299045
      351.0000      372791.70      332658.30      -0.0315262
      354.0000      364800.70      332658.30      -0.0768506
      357.0000      381252.40      332658.30      -0.0546333

       5     121       19.5900     24.0000      1.00000      0.00000
      0.0000      297035.00      294401.70      -0.0591107
      3.0000      326708.10      294401.70      0.0257554
      6.0000      325012.00      294401.70      0.0036086
      9.0000      346404.80      294401.70      0.0515305
      12.0000      357351.40      294401.70      0.0767648
      15.0000      330632.50      294401.70      -0.0092624
      18.0000      329164.10      294401.70      -0.0273389
      21.0000      327959.10      294401.70      -0.0433800
      24.0000      333059.60      294401.70      -0.0309980
      27.0000      333059.60      294401.70      -0.0339982
      30.0000      385467.20      294401.70      0.1050923
      33.0000      383092.90      294401.70      0.0891031
      36.0000      366070.30      294401.70      0.0411901
      39.0000      375047.60      294401.70      0.0648456
      42.0000      355303.60      294401.70      -0.0004533
      45.0000      357677.70      294401.70      0.0013983
      48.0000      349473.50      294401.70      -0.0177577
      51.0000      348180.80      294401.70      -0.0217561
      54.0000      356159.20      294401.70      -0.0068505
      57.0000      360786.90      294401.70      0.0048355
      60.0000      377305.70      294401.70      0.0572497
      63.0000      351048.30      294401.70      -0.0157296
      66.0000      337224.90      294401.70      -0.0598512
      69.0000      353874.30      294401.70      -0.0111972
      72.0000      351324.40      294401.70      -0.0102381
      75.0000      332598.10      294401.70      -0.0619894
      78.0000      331342.00      294401.70      -0.0690866
      81.0000      332519.50      294401.70      -0.0607892
      84.0000      327934.30      294401.70      -0.0645027
      87.0000      310871.60      294401.70      -0.1120394
      90.0000      338358.30      294401.70      -0.0350592
      93.0000      344993.60      294401.70      -0.0081266
      96.0000      321437.30      294401.70      -0.0658364
      99.0000      306499.30      294401.70      -0.1079131
      102.0000      298306.10      294401.70      -0.1315724
      105.0000      318776.90      294401.70      -0.0616120
      108.0000      287204.90      294401.70      -0.1445542
      111.0000      340978.20      294401.70      0.0169857
      114.0000      333792.20      294401.70      -0.0012875
      117.0000      342796.10      294401.70      0.0386249
      120.0000      349449.80      294401.70      0.0704190
      123.0000      346699.30      294401.70      0.0650154
      126.0000      335309.90      294401.70      0.0356935
      129.0000      329158.70      294401.70      0.0311743
      132.0000      331086.60      294401.70      0.0485743
      135.0000      308137.60      294401.70      -0.0210987
      138.0000      317049.60      294401.70      0.0149993
      141.0000      322270.50      294401.70      0.0477942
      144.0000      340649.60      294401.70      0.1190427
      147.0000      331260.60      294401.70      0.0926408
      150.0000      324165.20      294401.70      0.0795891
      153.0000      344153.70      294401.70      0.1643723
      156.0000      320426.60      294401.70      0.0950718
      159.0000      327784.80      294401.70      0.1254552
      162.0000      332449.40      294401.70      0.1545625
      165.0000      323458.10      294401.70      0.1413907
      168.0000      306667.50      294401.70      0.0921454
      171.0000      279188.10      294401.70      -0.0009600
      174.0000      301948.00      294401.70      0.0947294
      177.0000      281335.30      294401.70      0.0366230
      180.0000      277746.10      294401.70      0.0314435
      183.0000      278016.50      294401.70      0.0379425
      186.0000      231345.40      294401.70      -0.1243497
      189.0000      277669.10      294401.70      0.0673074
      192.0000      266203.40      294401.70      0.0299698
      195.0000      258138.30      294401.70      0.0042882
      198.0000      260307.20      294401.70      0.0275090
      201.0000      224708.50      294401.70      -0.1000150
      204.0000      248716.90      294401.70      0.0002655
      207.0000      244860.30      294401.70      -0.0097355
      210.0000      240887.30      294401.70      -0.0116483
      213.0000      225379.40      294401.70      -0.0639714
      216.0000      227280.70      294401.70      -0.0538958
      219.0000      235171.60      294401.70      -0.0157077
      222.0000      224530.60      294401.70      -0.0473318
      225.0000      233965.20      294401.70      0.0016133
      228.0000      223548.60      294401.70      -0.0426324
      231.0000      207911.30      294401.70      -0.1056068
      234.0000      200723.10      294401.70      -0.1255658
      237.0000      182904.90      294401.70      -0.1983813
      240.0000      218283.00      294401.70      -0.0461988
      243.0000      177390.40      294401.70      -0.2225722
      246.0000      196430.20      294401.70      -0.1298932
      249.0000      230372.20      294401.70      0.0214755
      252.0000      212455.70      294401.70      -0.0626227
      255.0000      227495.80      294401.70      0.0060671
      258.0000      233342.20      294401.70      0.0380254
      261.0000      233342.20      294401.70      0.0350933
      264.0000      225634.70      294401.70      -0.0067172
      267.0000      200980.80      294401.70      -0.1154185
      270.0000      225889.10      294401.70      -0.0034631
      273.0000      200365.40      294401.70      -0.1226781
      276.0000      226455.50      294401.70      -0.0191634
      279.0000      198490.20      294401.70      -0.1424603
      282.0000      131485.50      294401.70      -0.4312864
      285.0000      218578.00      294401.70      -0.0693548
      288.0000      240407.30      294401.70      0.0098595
      291.0000      238960.40      294401.70      -0.0015435
      294.0000      245097.00      294401.70      0.0169304
      297.0000      263269.40      294401.70      0.0740309
      300.0000      287376.00      294401.70      0.1541310
      303.0000      295416.00      294401.70      0.1759004
      306.0000      262222.50      294401.70      0.0317274
      309.0000      309589.60      294401.70      0.1929969
      312.0000      307230.90      294401.70      0.1625494
      315.0000      306038.70      294401.70      0.1444298
      318.0000      277837.40      294401.70      0.0224450
      321.0000      312454.00      294401.70      0.1220318
      324.0000      307791.50      294401.70      0.0830658
      327.0000      301644.00      294401.70      0.0465530
      330.0000      307465.50      294401.70      0.0451812
      333.0000      320679.50      294401.70      0.0606324
      336.0000      329330.10      294401.70      0.0659348
      339.0000      303718.70      294401.70      -0.0328572
      342.0000      321295.80      294401.70      -0.0014037
      345.0000      342036.00      294401.70      0.0319191
      348.0000      332947.10      294401.70      -0.0179578
      351.0000      317490.30      294401.70      -0.0803928
      354.0000      340885.20      294401.70      -0.0394998
      357.0000      294530.10      294401.70      -0.1964560

       6     121       19.5900     27.0000      1.00000      0.00000
      0.0000      300533.20      268770.50      -0.0887139
      3.0000      320707.20      268770.50      -0.0197722
      6.0000      312172.40      268770.50      -0.0458318
      9.0000      310558.60      268770.50      -0.0603027
      12.0000      323235.60      268770.50      -0.0220763
      15.0000      315922.50      268770.50      -0.0353524
      18.0000      316479.70      268770.50      -0.0342506
      21.0000      323996.60      268770.50      -0.0195331
      24.0000      325541.90      268770.50      -0.0119524
      27.0000      340025.40      268770.50      0.0421588
      30.0000      373189.40      268770.50      0.1423787
      33.0000      342286.30      268770.50      0.0416992
      36.0000      375822.20      268770.50      0.1505363
      39.0000      337778.60      268770.50      0.0444320
      42.0000      343265.20      268770.50      0.0597853
      45.0000      349700.20      268770.50      0.0754582
      48.0000      362044.80      268770.50      0.1226373
      51.0000      363436.60      268770.50      0.1379521
      54.0000      326749.50      268770.50      0.0216385
      57.0000      335451.90      268770.50      0.0468364
      60.0000      320889.40      268770.50      0.0121414
      63.0000      311763.60      268770.50      -0.0065206
      66.0000      319050.10      268770.50      0.0141760
      69.0000      319050.10      268770.50      0.0144204
      72.0000      319050.10      268770.50      0.0275055
      75.0000      254836.20      268770.50      -0.1704356
      78.0000      284513.30      268770.50      -0.0774728
      81.0000      289653.10      268770.50      -0.0584521
      84.0000      289653.10      268770.50      -0.0442398
      87.0000      288960.30      268770.50      -0.0383090
      90.0000      281114.90      268770.50      -0.0670678
      93.0000      264973.20      268770.50      -0.1164328
      96.0000      279795.50      268770.50      -0.0515426
      99.0000      262971.20      268770.50      -0.1017709
      102.0000      256395.00      268770.50      -0.1269303
      105.0000      270763.30      268770.50      -0.0706333
      108.0000      245089.70      268770.50      -0.1440853
      111.0000      268627.60      268770.50      -0.0568376
      114.0000      268627.60      268770.50      -0.0584858
      117.0000      254987.60      268770.50      -0.0973628
      120.0000      262482.00      268770.50      -0.0550324
      123.0000      238415.90      268770.50      -0.1376850
      126.0000      282455.60      268770.50      0.0210817
      129.0000      283907.50      268770.50      0.0386759
      132.0000      269803.10      268770.50      0.0026835
      135.0000      286487.10      268770.50      0.0680248
      138.0000      281879.90      268770.50      0.0522037
      141.0000      280572.90      268770.50      0.0615447
      144.0000      282080.50      268770.50      0.0826385
      147.0000      290952.40      268770.50      0.1192883
      150.0000      284394.20      268770.50      0.0970667
      153.0000      263789.00      268770.50      0.0324658
      156.0000      275220.50      268770.50      0.0911998
      159.0000      275220.50      268770.50      0.0925152
      162.0000      311829.10      268770.50      0.2435693
      165.0000      271557.80      268770.50      0.0988699
      168.0000      271557.80      268770.50      0.1111717
      171.0000      237799.70      268770.50      -0.0270315
      174.0000      289001.60      268770.50      0.1894178
      177.0000      236974.70      268770.50      -0.0096285
      180.0000      255835.30      268770.50      0.0787005
      183.0000      242206.10      268770.50      0.0200681
      186.0000      248093.90      268770.50      0.0514689
      189.0000      224306.60      268770.50      -0.0342899
      192.0000      204405.70      268770.50      -0.1137475
      195.0000      236038.40      268770.50      0.0204051
      198.0000      236038.40      268770.50      0.0277141
      201.0000      222166.20      268770.50      -0.0183148
      204.0000      212204.30      268770.50      -0.0586921
      207.0000      242072.00      268770.50      0.0704572
      210.0000      220584.00      268770.50      -0.0173312
      213.0000      220758.90      268770.50      -0.0035760
      216.0000      236274.40      268770.50      0.0670246
      219.0000      236274.40      268770.50      0.0633060
      222.0000      206430.50      268770.50      -0.0639222
      225.0000      206206.00      268770.50      -0.0544826
      228.0000      204589.40      268770.50      -0.0645432
      231.0000      218538.30      268770.50      -0.0054491
      234.0000      194743.90      268770.50      -0.1067721
      237.0000      202367.40      268770.50      -0.0642181
      240.0000      214067.10      268770.50      -0.0162511
      243.0000      200463.00      268770.50      -0.0840667
      246.0000      198901.60      268770.50      -0.0841482
      249.0000      197894.50      268770.50      -0.0845403
      252.0000      203167.00      268770.50      -0.0691903
      255.0000      194267.50      268770.50      -0.1156705
      258.0000      177418.60      268770.50      -0.1866134
      261.0000      195398.20      268770.50      -0.1038412
      264.0000      229760.20      268770.50      0.0406113
      267.0000      218905.80      268770.50      -0.0150592
      270.0000      210105.80      268770.50      -0.0505821
      273.0000      207179.10      268770.50      -0.0673054
      276.0000      195296.50      268770.50      -0.1345570
      279.0000      222586.60      268770.50      -0.0199587
      282.0000      205461.20      268770.50      -0.0932282
      285.0000      218425.00      268770.50      -0.0441692
      288.0000      245220.80      268770.50      0.0548364
      291.0000      219854.40      268770.50      -0.0618436
      294.0000      252211.40      268770.50      0.0752065
      297.0000      270931.70      268770.50      0.1406968
      300.0000      248443.80      268770.50      0.0266272
      303.0000      272040.70      268770.50      0.1151550
      306.0000      264630.90      268770.50      0.0800233
      309.0000      248602.40      268770.50      -0.0015941
      312.0000      310393.10      268770.50      0.2223227
      315.0000      275864.60      268770.50      0.0758720
      318.0000      269528.20      268770.50      0.0436512
      321.0000      276981.70      268770.50      0.0512755
      324.0000      283036.70      268770.50      0.0515398
      327.0000      317413.80      268770.50      0.1680022
      330.0000      286461.50      268770.50      0.0433185
      333.0000      295901.70      268770.50      0.0530219
      336.0000      276740.70      268770.50      -0.0370101
      339.0000      291022.30      268770.50      0.0029598
      342.0000      295132.00      268770.50      0.0036768
      345.0000      306440.80      268770.50      0.0153094
      348.0000      291400.40      268770.50      -0.0560041
      351.0000      275642.50      268770.50      -0.1158193
      354.0000      301689.10      268770.50      -0.0481376
      357.0000      291403.50      268770.50      -0.1067271

       7     121       19.5900     30.0000      1.00000      0.00000
      0.0000      691645.80      622234.30      -0.0147318
      3.0000      620262.00      622234.30      -0.1237644
      6.0000      699758.80      622234.30      -0.0148627
      9.0000      690570.60      622234.30      -0.0311781
      12.0000      734817.80      622234.30      0.0238699
      15.0000      747682.50      622234.30      0.0361367
      18.0000      725877.40      622234.30      0.0045383
      21.0000      682432.50      622234.30      -0.0573675
      24.0000      682432.50      622234.30      -0.0623158
      27.0000      699399.20      622234.30      -0.0420191
      30.0000      645171.90      622234.30      -0.1154868
      33.0000      753522.10      622234.30      0.0321142
      36.0000      769588.60      622234.30      0.0504810
      39.0000      739100.70      622234.30      0.0078914
      42.0000      808868.60      622234.30      0.1055874
      45.0000      791702.90      622234.30      0.0824350
      48.0000      842290.20      622234.30      0.1495174
      51.0000      768079.70      622234.30      0.0492667
      54.0000      818417.50      622234.30      0.1221226
      57.0000      755643.80      622234.30      0.0373383
      60.0000      763092.80      622234.30      0.0469891
      63.0000      752417.00      622234.30      0.0353606
      66.0000      762543.00      622234.30      0.0544573
      69.0000      713467.50      622234.30      -0.0115030
      72.0000      713467.50      622234.30      -0.0107978
      75.0000      654259.00      622234.30      -0.0886855
      78.0000      688443.20      622234.30      -0.0352565
      81.0000      689312.80      622234.30      -0.0317128
      84.0000      712118.90      622234.30      0.0024270
      87.0000      684944.40      622234.30      -0.0298814
      90.0000      736659.40      622234.30      0.0502027
      93.0000      713352.90      622234.30      0.0201462
      96.0000      642886.00      622234.30      -0.0776035
      99.0000      642886.00      622234.30      -0.0705401
      102.0000      584496.50      622234.30      -0.1486997
      105.0000      609327.20      622234.30      -0.1097124
      108.0000      654046.70      622234.30      -0.0398721
      111.0000      657184.60      622234.30      -0.0269065
      114.0000      629316.90      622234.30      -0.0611987
      117.0000      646652.50      622234.30      -0.0315741
      120.0000      612759.20      622234.30      -0.0769881
      123.0000      611018.40      622234.30      -0.0707444
      126.0000      670028.00      622234.30      0.0265080
      129.0000      710731.40      622234.30      0.0939072
      132.0000      704693.70      622234.30      0.0922502
      135.0000      682324.60      622234.30      0.0679591
      138.0000      673903.20      622234.30      0.0625938
      141.0000      680073.90      622234.30      0.0777710
      144.0000      675471.10      622234.30      0.0789794
      147.0000      665667.80      622234.30      0.0740945
      150.0000      647665.00      622234.30      0.0525797
      153.0000      641204.30      622234.30      0.0476846
      156.0000      655464.50      622234.30      0.0802969
      159.0000      662131.40      622234.30      0.1023137
      162.0000      655814.10      622234.30      0.0992632
      165.0000      600449.40      622234.30      0.0120940
      168.0000      603666.30      622234.30      0.0268827
      171.0000      554414.70      622234.30      -0.0473887
      174.0000      581710.90      622234.30      0.0055637
      177.0000      612178.00      622234.30      0.0643418
      180.0000      604203.70      622234.30      0.0602635
      183.0000      558802.90      622234.30      -0.0102217
      186.0000      564256.90      622234.30      0.0048002
      189.0000      527069.60      622234.30      -0.0562295
      192.0000      547130.00      622234.30      -0.0110941
      195.0000      545880.40      622234.30      -0.0051148
      198.0000      546577.10      622234.30      0.0005639
      201.0000      539131.50      622234.30      -0.0077453
      204.0000      540863.60      622234.30      0.0041929
      207.0000      535991.10      622234.30      0.0020994
      210.0000      539175.30      622234.30      0.0113845
      213.0000      479801.10      622234.30      -0.0957192
      216.0000      492704.20      622234.30      -0.0638917
      219.0000      473291.60      622234.30      -0.0959548
      222.0000      517571.90      622234.30      -0.0096100
      225.0000      480642.90      622234.30      -0.0765545
      228.0000      471201.60      622234.30      -0.0886026
      231.0000      432844.80      622234.30      -0.1600025
      234.0000      396175.80      622234.30      -0.2313624
      237.0000      466915.10      622234.30      -0.0910449
      240.0000      426022.00      622234.30      -0.1664111
      243.0000      442456.80      622234.30      -0.1336274
      246.0000      455950.30      622234.30      -0.1086896
      249.0000      452202.80      622234.30      -0.1144601
      252.0000      485955.90      622234.30      -0.0458162
      255.0000      456823.60      622234.30      -0.1045409
      258.0000      519574.60      622234.30      0.0151473
      261.0000      490738.10      622234.30      -0.0412959
      264.0000      482630.30      622234.30      -0.0570511
      267.0000      497695.10      622234.30      -0.0320199
      270.0000      472871.50      622234.30      -0.0852729
      273.0000      514903.90      622234.30      -0.0058293
      276.0000      534173.40      622234.30      0.0283944
      279.0000      527295.90      622234.30      0.0078424
      282.0000      547414.60      622234.30      0.0387222
      285.0000      616404.40      622234.30      0.1645457
      288.0000      515644.70      622234.30      -0.0313654
      291.0000      540120.30      622234.30      0.0043426
      294.0000      558523.00      622234.30      0.0288885
      297.0000      593600.40      622234.30      0.0862557
      300.0000      632751.40      622234.30      0.1474885
      303.0000      630956.50      622234.30      0.1299873
      306.0000      649462.00      622234.30      0.1500387
      309.0000      615131.80      622234.30      0.0792881
      312.0000      670681.00      622234.30      0.1626980
      315.0000      737805.00      622234.30      0.2601414
      318.0000      714374.00      622234.30      0.2039909
      321.0000      719060.00      622234.30      0.1977999
      324.0000      645432.80      622234.30      0.0595656
      327.0000      641285.70      622234.30      0.0345246
      330.0000      712357.90      622234.30      0.1322270
      333.0000      608568.50      622234.30      -0.0457396
      336.0000      671841.70      622234.30      0.0351909
      339.0000      680758.30      622234.30      0.0287927
      342.0000      634713.00      622234.30      -0.0564365
      345.0000      663333.10      622234.30      -0.0290794
      348.0000      590707.10      622234.30      -0.1522617
      351.0000      627977.10      622234.30      -0.1177335
      354.0000      603318.40      622234.30      -0.1669798
      357.0000      606854.90      622234.30      -0.1763071

       8     121       19.5900     33.0000      1.00000      0.00000
      0.0000      559969.50      580753.40      0.0196402
      3.0000      578848.20      580753.40      0.0363617
      6.0000      595212.40      580753.40      0.0525629
      9.0000      610251.30      580753.40      0.0617496
      12.0000      609570.30      580753.40      0.0416666
      15.0000      589110.80      580753.40      -0.0049887
      18.0000      584736.40      580753.40      -0.0204092
      21.0000      573648.00      580753.40      -0.0515403
      24.0000      621748.60      580753.40      0.0136800
      27.0000      563653.70      580753.40      -0.0876879
      30.0000      569784.20      580753.40      -0.0823005
      33.0000      589060.20      580753.40      -0.0615038
      36.0000      610248.20      580753.40      -0.0378967
      39.0000      649897.60      580753.40      0.0211515
      42.0000      664345.40      580753.40      0.0406277
      45.0000      700738.30      580753.40      0.0884948
      48.0000      721391.10      580753.40      0.1129668
      51.0000      676955.70      580753.40      0.0436451
      54.0000      678095.00      580753.40      0.0439758
      57.0000      707498.40      580753.40      0.0822295
      60.0000      665510.00      580753.40      0.0138449
      63.0000      649610.60      580753.40      -0.0082613
      66.0000      617687.00      580753.40      -0.0568574
      69.0000      581349.90      580753.40      -0.1170423
      72.0000      564593.50      580753.40      -0.1437436
      75.0000      585514.80      580753.40      -0.1076535
      78.0000      573023.30      580753.40      -0.1257660
      81.0000      559388.50      580753.40      -0.1499807
      84.0000      601568.70      580753.40      -0.0845159
      87.0000      605101.60      580753.40      -0.0732861
      90.0000      664877.50      580753.40      0.0197291
      93.0000      625245.10      580753.40      -0.0427941
      96.0000      665281.20      580753.40      0.0224180
      99.0000      642940.90      580753.40      -0.0047232
      102.0000      638965.60      580753.40      -0.0087305
      105.0000      646552.00      580753.40      0.0028656
      108.0000      644024.70      580753.40      0.0047913
      111.0000      614943.60      580753.40      -0.0325915
      114.0000      638639.60      580753.40      0.0071540
      117.0000      630658.70      580753.40      -0.0040571
      120.0000      668578.50      580753.40      0.0640396
      123.0000      609486.20      580753.40      -0.0214141
      126.0000      669615.20      580753.40      0.0781162
      129.0000      673793.90      580753.40      0.0882747
      132.0000      688811.00      580753.40      0.1226219
      135.0000      658165.80      580753.40      0.0821798
      138.0000      674471.00      580753.40      0.1127054
      141.0000      708176.20      580753.40      0.1738655
      144.0000      662660.00      580753.40      0.1094936
      147.0000      665064.80      580753.40      0.1232661
      150.0000      689547.40      580753.40      0.1689396
      153.0000      632687.40      580753.40      0.0787424
      156.0000      603477.40      580753.40      0.0404811
      159.0000      574140.00      580753.40      -0.0015432
      162.0000      608192.50      580753.40      0.0613232
      165.0000      572197.50      580753.40      0.0053497
      168.0000      566187.70      580753.40      0.0066247
      171.0000      597021.20      580753.40      0.0696891
      174.0000      594385.00      580753.40      0.0688754
      177.0000      540050.20      580753.40      -0.0213479
      180.0000      585153.80      580753.40      0.0728925
      183.0000      562822.40      580753.40      0.0391808
      186.0000      557108.10      580753.40      0.0321991
      189.0000      506830.40      580753.40      -0.0530893
      192.0000      506830.40      580753.40      -0.0421029
      195.0000      518578.80      580753.40      -0.0144667
      198.0000      509367.10      580753.40      -0.0290497
      201.0000      510847.80      580753.40      -0.0175976
      204.0000      457745.20      580753.40      -0.1102585
      207.0000      482341.80      580753.40      -0.0589167
      210.0000      459155.70      580753.40      -0.1020435
      213.0000      463787.60      580753.40      -0.0849025
      216.0000      451647.80      580753.40      -0.1006966
      219.0000      458427.10      580753.40      -0.0854419
      222.0000      477832.00      580753.40      -0.0448651
      225.0000      441679.30      580753.40      -0.1099951
      228.0000      448924.60      580753.40      -0.0891234
      231.0000      447153.10      580753.40      -0.0928828
      234.0000      458257.80      580753.40      -0.0693906
      237.0000      487027.90      580753.40      -0.0041790
      240.0000      422842.90      580753.40      -0.1315305
      243.0000      447371.50      580753.40      -0.0836106
      246.0000      467985.90      580753.40      -0.0414068
      249.0000      433999.50      580753.40      -0.1064494
      252.0000      464334.50      580753.40      -0.0430780
      255.0000      437728.10      580753.40      -0.1023909
      258.0000      460827.20      580753.40      -0.0563993
      261.0000      456364.90      580753.40      -0.0629170
      264.0000      492066.20      580753.40      0.0078375
      267.0000      417839.70      580753.40      -0.1507416
      270.0000      453966.30      580753.40      -0.0801278
      273.0000      464257.00      580753.40      -0.0592002
      276.0000      498721.80      580753.40      0.0044054
      279.0000      466161.10      580753.40      -0.0706618
      282.0000      524761.80      580753.40      0.0409192
      285.0000      539469.10      580753.40      0.0662977
      288.0000      549675.10      580753.40      0.0760046
      291.0000      469935.10      580753.40      -0.0917729
      294.0000      536397.20      580753.40      0.0293616
      297.0000      540508.20      580753.40      0.0302560
      300.0000      491809.90      580753.40      -0.0750012
      303.0000      616880.80      580753.40      0.1433586
      306.0000      608011.70      580753.40      0.1158164
      309.0000      618839.40      580753.40      0.1239319
      312.0000      638282.50      580753.40      0.1401689
      315.0000      595919.30      580753.40      0.0465241
      318.0000      692961.40      580753.40      0.2025620
      321.0000      663255.60      580753.40      0.1353697
      324.0000      725159.10      580753.40      0.2172636
      327.0000      722427.90      580753.40      0.1902976
      330.0000      691292.80      580753.40      0.1228740
      333.0000      651046.80      580753.40      0.0400925
      336.0000      711084.70      580753.40      0.1107214
      339.0000      677189.60      580753.40      0.0364383
      342.0000      623362.10      580753.40      -0.0606650
      345.0000      623362.10      580753.40      -0.0787645
      348.0000      633781.70      580753.40      -0.0867610
      351.0000      640704.20      580753.40      -0.0963207
      354.0000      620707.30      580753.40      -0.1390280
      357.0000      580645.60      580753.40      -0.2121073

       9     121       19.5900     36.0000      1.00000      0.00000
      0.0000      540551.60      488180.70      0.0386945
      3.0000      562697.40      488180.70      0.0694468
      6.0000      582766.30      488180.70      0.0975655
      9.0000      601233.10      488180.70      0.1209637
      12.0000      595188.30      488180.70      0.0985116
      15.0000      583608.70      488180.70      0.0691180
      18.0000      575767.80      488180.70      0.0483970
      21.0000      568938.70      488180.70      0.0283171
      24.0000      551450.80      488180.70      -0.0104966
      27.0000      506603.50      488180.70      -0.0949488
      30.0000      499665.30      488180.70      -0.1103544
      33.0000      499213.50      488180.70      -0.1158596
      36.0000      499213.50      488180.70      -0.1200455
      39.0000      540909.90      488180.70      -0.0481172
      42.0000      557904.30      488180.70      -0.0196543
      45.0000      544626.80      488180.70      -0.0460636
      48.0000      554522.70      488180.70      -0.0309109
      51.0000      549056.50      488180.70      -0.0400016
      54.0000      549850.80      488180.70      -0.0383763
      57.0000      549705.00      488180.70      -0.0400563
      60.0000      542437.70      488180.70      -0.0528496
      63.0000      528175.30      488180.70      -0.0754820
      66.0000      525441.80      488180.70      -0.0787053
      69.0000      493987.60      488180.70      -0.1338522
      72.0000      485859.10      488180.70      -0.1465349
      75.0000      507242.70      488180.70      -0.1051799
      78.0000      543115.50      488180.70      -0.0391737
      81.0000      559329.20      488180.70      -0.0088878
      84.0000      602197.50      488180.70      0.0710530
      87.0000      573723.00      488180.70      0.0258961
      90.0000      600547.40      488180.70      0.0780812
      93.0000      623375.20      488180.70      0.1226167
      96.0000      610261.30      488180.70      0.1047579
      99.0000      571968.00      488180.70      0.0422075
      102.0000      567998.30      488180.70      0.0400211
      105.0000      541639.00      488180.70      -0.0039536
      108.0000      539392.60      488180.70      -0.0014053
      111.0000      528817.80      488180.70      -0.0135446
      114.0000      559206.20      488180.70      0.0489781
      117.0000      557210.10      488180.70      0.0510395
      120.0000      551941.20      488180.70      0.0493483
      123.0000      550782.80      488180.70      0.0557892
      126.0000      545850.90      488180.70      0.0529400
      129.0000      543531.40      488180.70      0.0553978
      132.0000      537833.80      488180.70      0.0536590
      135.0000      534890.30      488180.70      0.0570801
      138.0000      537687.90      488180.70      0.0698660
      141.0000      533068.50      488180.70      0.0686584
      144.0000      510707.30      488180.70      0.0337516
      147.0000      484225.60      488180.70      -0.0109278
      150.0000      478400.50      488180.70      -0.0158966
      153.0000      494315.20      488180.70      0.0252329
      156.0000      490687.50      488180.70      0.0281152
      159.0000      491665.50      488180.70      0.0395135
      162.0000      488526.50      488180.70      0.0404741
      165.0000      480238.70      488180.70      0.0317627
      168.0000      477927.10      488180.70      0.0374643
      171.0000      467139.40      488180.70      0.0230133
      174.0000      482957.70      488180.70      0.0654259
      177.0000      473322.40      488180.70      0.0535360
      180.0000      484936.20      488180.70      0.0903460
      183.0000      483320.30      488180.70      0.0957317
      186.0000      482847.00      488180.70      0.1024956
      189.0000      468500.60      488180.70      0.0792050
      192.0000      460657.10      488180.70      0.0713053
      195.0000      442061.40      488180.70      0.0357113
      198.0000      437101.70      488180.70      0.0307717
      201.0000      426186.90      488180.70      0.0134868
      204.0000      416890.50      488180.70      -0.0000297
      207.0000      385626.50      488180.70      -0.0693200
      210.0000      376260.10      488180.70      -0.0869307
      213.0000      352157.00      488180.70      -0.1388901
      216.0000      360134.90      488180.70      -0.1129250
      219.0000      361380.00      488180.70      -0.1059373
      222.0000      361527.70      488180.70      -0.1017524
      225.0000      355480.10      488180.70      -0.1111928
      228.0000      367693.40      488180.70      -0.0757731
      231.0000      347107.70      488180.70      -0.1253775
      234.0000      349523.80      488180.70      -0.1169313
      237.0000      350511.80      488180.70      -0.1104319
      240.0000      357152.90      488180.70      -0.0909465
      243.0000      343071.70      488180.70      -0.1267070
      246.0000      344771.00      488180.70      -0.1217427
      249.0000      334214.20      488180.70      -0.1467043
      252.0000      315328.30      488180.70      -0.1947940
      255.0000      334164.40      488180.70      -0.1489830
      258.0000      353059.20      488180.70      -0.1022213
      261.0000      364588.10      488180.70      -0.0733808
      264.0000      379274.80      488180.70      -0.0390251
      267.0000      391353.60      488180.70      -0.0136114
      270.0000      396971.30      488180.70      -0.0035794
      273.0000      420905.30      488180.70      0.0525787
      276.0000      444346.80      488180.70      0.1041313
      279.0000      437229.40      488180.70      0.0777194
      282.0000      438463.10      488180.70      0.0732746
      285.0000      429013.20      488180.70      0.0428810
      288.0000      443010.00      488180.70      0.0664445
      291.0000      434746.80      488180.70      0.0350045
      294.0000      438605.80      488180.70      0.0340586
      297.0000      437487.20      488180.70      0.0210022
      300.0000      431643.70      488180.70      -0.0057405
      303.0000      440333.80      488180.70      0.0001904
      306.0000      468220.70      488180.70      0.0503515
      309.0000      477718.10      488180.70      0.0574432
      312.0000      480335.90      488180.70      0.0461814
      315.0000      511448.10      488180.70      0.0957239
      318.0000      522406.90      488180.70      0.1023635
      321.0000      537658.90      488180.70      0.1161549
      324.0000      552893.00      488180.70      0.1263101
      327.0000      560938.20      488180.70      0.1214477
      330.0000      561144.90      488180.70      0.1023858
      333.0000      547843.90      488180.70      0.0560644
      336.0000      552876.10      488180.70      0.0432543
      339.0000      546152.20      488180.70      0.0094237
      342.0000      536965.00      488180.70      -0.0265924
      345.0000      535919.10      488180.70      -0.0488931
      348.0000      548479.90      488180.70      -0.0491556
      351.0000      544231.50      488180.70      -0.0772479
      354.0000      546085.30      488180.70      -0.0932800
      357.0000      539626.00      488180.70      -0.1245331

       10     121       19.5900     39.0000      1.00000      0.00000
      0.0000      538895.10      459928.80      0.0391780
      3.0000      554817.80      459928.80      0.0606733
      6.0000      563910.40      459928.80      0.0682197
      9.0000      579944.40      459928.80      0.0889942
      12.0000      594233.20      459928.80      0.1083071
      15.0000      594844.90      459928.80      0.1029677
      18.0000      610267.80      459928.80      0.1242295
      21.0000      585204.10      459928.80      0.0716354
      24.0000      555447.00      459928.80      0.0130699
      27.0000      518399.40      459928.80      -0.0576987
      30.0000      490697.50      459928.80      -0.1119322
      33.0000      486345.80      459928.80      -0.1229989
      36.0000      510230.10      459928.80      -0.0812967
      39.0000      527212.90      459928.80      -0.0520582
      42.0000      530252.00      459928.80      -0.0488488
      45.0000      514967.60      459928.80      -0.0775376
      48.0000      523601.90      459928.80      -0.0615664
      51.0000      513273.00      459928.80      -0.0797882
      54.0000      517318.00      459928.80      -0.0731116
      57.0000      522930.90      459928.80      -0.0624431
      60.0000      534578.90      459928.80      -0.0393338
      63.0000      519440.40      459928.80      -0.0648602
      66.0000      498512.10      459928.80      -0.1016462
      69.0000      456695.80      459928.80      -0.1749989
      72.0000      475491.00      459928.80      -0.1375858
      75.0000      511679.10      459928.80      -0.0691277
      78.0000      538230.50      459928.80      -0.0183387
      81.0000      538230.50      459928.80      -0.0142761
      84.0000      562947.00      459928.80      0.0363530
      87.0000      593971.50      459928.80      0.0981207
      90.0000      557930.70      459928.80      0.0356315
      93.0000      563860.10      459928.80      0.0525175
      96.0000      550787.70      459928.80      0.0346643
      99.0000      530867.90      459928.80      0.0025456
      102.0000      533124.80      459928.80      0.0121056
      105.0000      514366.10      459928.80      -0.0167159
      108.0000      525233.00      459928.80      0.0114868
      111.0000      542874.20      459928.80      0.0519569
      114.0000      585052.30      459928.80      0.1410780
      117.0000      573736.60      459928.80      0.1280008
      120.0000      553837.40      459928.80      0.0977785
      123.0000      529422.30      459928.80      0.0568043
      126.0000      523339.40      459928.80      0.0525173
      129.0000      510572.20      459928.80      0.0361514
      132.0000      502700.80      459928.80      0.0292116
      135.0000      488199.90      459928.80      0.0072126
      138.0000      456096.40      459928.80      -0.0511379
      141.0000      453894.10      459928.80      -0.0463431
      144.0000      450877.50      459928.80      -0.0438507
      147.0000      481740.20      459928.80      0.0299628
      150.0000      471438.20      459928.80      0.0171684
      153.0000      492903.50      459928.80      0.0745147
      156.0000      482917.60      459928.80      0.0627945
      159.0000      477970.60      459928.80      0.0609826
      162.0000      466629.00      459928.80      0.0458439
      165.0000      459147.60      459928.80      0.0400268
      168.0000      456523.60      459928.80      0.0439531
      171.0000      457233.50      459928.80      0.0547596
      174.0000      462789.40      459928.80      0.0782260
      177.0000      455296.50      459928.80      0.0719880
      180.0000      441123.30      459928.80      0.0482775
      183.0000      438137.80      459928.80      0.0502466
      186.0000      445256.90      459928.80      0.0779233
      189.0000      436347.20      459928.80      0.0671269
      192.0000      448870.60      459928.80      0.1073397
      195.0000      426561.70      459928.80      0.0610932
      198.0000      418068.80      459928.80      0.0498874
      201.0000      404513.30      459928.80      0.0254547
      204.0000      400755.20      459928.80      0.0238647
      207.0000      381347.30      459928.80      -0.0183263
      210.0000      346716.70      459928.80      -0.0996134
      213.0000      342277.80      459928.80      -0.1037233
      216.0000      347290.10      459928.80      -0.0847561
      219.0000      360997.00      459928.80      -0.0424417
      222.0000      353926.50      459928.80      -0.0540822
      225.0000      340050.90      459928.80      -0.0851036
      228.0000      338219.50      459928.80      -0.0856974
      231.0000      327326.80      459928.80      -0.1107350
      234.0000      326559.50      459928.80      -0.1075583
      237.0000      328659.30      459928.80      -0.0977454
      240.0000      336890.30      459928.80      -0.0726596
      243.0000      335044.00      459928.80      -0.0748782
      246.0000      326966.80      459928.80      -0.0938359
      249.0000      290489.00      459928.80      -0.1932854
      252.0000      309109.70      459928.80      -0.1414428
      255.0000      310726.40      459928.80      -0.1362442
      258.0000      327576.40      459928.80      -0.0884007
      261.0000      342271.00      459928.80      -0.0484271
      264.0000      350411.80      459928.80      -0.0281613
      267.0000      377058.10      459928.80      0.0438283
      270.0000      364037.60      459928.80      0.0057462
      273.0000      375068.20      459928.80      0.0319541
      276.0000      386124.40      459928.80      0.0567251
      279.0000      394255.00      459928.80      0.0738126
      282.0000      390696.20      459928.80      0.0584991
      285.0000      388736.00      459928.80      0.0453765
      288.0000      396676.10      459928.80      0.0577875
      291.0000      391551.00      459928.80      0.0359490
      294.0000      402046.60      459928.80      0.0545688
      297.0000      393629.80      459928.80      0.0213862
      300.0000      410395.80      459928.80      0.0527322
      303.0000      407911.90      459928.80      0.0350101
      306.0000      414750.70      459928.80      0.0398678
      309.0000      414750.70      459928.80      0.0253487
      312.0000      414750.70      459928.80      0.0106774
      315.0000      414750.70      459928.80      -0.0031672
      318.0000      414750.70      459928.80      -0.0180675
      321.0000      423278.70      459928.80      -0.0148532
      324.0000      425548.10      459928.80      -0.0263155
      327.0000      439031.30      459928.80      -0.0118520
      330.0000      452716.70      459928.80      0.0008348
      333.0000      463784.50      459928.80      0.0053226
      336.0000      471320.70      459928.80      0.0021137
      339.0000      485553.70      459928.80      0.0131054
      342.0000      508036.30      459928.80      0.0385671
      345.0000      537239.70      459928.80      0.0745673
      348.0000      535874.00      459928.80      0.0493352
      351.0000      514033.70      459928.80      -0.0142077
      354.0000      516113.40      459928.80      -0.0322612
      357.0000      510563.60      459928.80      -0.0650545

       11     121       19.5900     42.0000      1.00000      0.00000
      0.0000      452250.70      391023.20      0.0607062
      3.0000      458783.00      391023.20      0.0660916
      6.0000      450368.70      391023.20      0.0396215
      9.0000      442246.80      391023.20      0.0150194
      12.0000      463987.80      391023.20      0.0573403
      15.0000      483637.00      391023.20      0.0951054
      18.0000      487394.40      391023.20      0.0993337
      21.0000      472995.90      391023.20      0.0631025
      24.0000      473888.30      391023.20      0.0599122
      27.0000      438558.60      391023.20      -0.0229847
      30.0000      407534.20      391023.20      -0.0933274
      33.0000      395306.90      391023.20      -0.1218551
      36.0000      408493.70      391023.20      -0.0954609
      39.0000      429215.10      391023.20      -0.0511470
      42.0000      436710.30      391023.20      -0.0339036
      45.0000      443281.30      391023.20      -0.0193810
      48.0000      436387.70      391023.20      -0.0359128
      51.0000      434173.40      391023.20      -0.0404297
      54.0000      432780.40      391023.20      -0.0411666
      57.0000      425347.80      391023.20      -0.0563562
      60.0000      425333.30      391023.20      -0.0561866
      63.0000      421429.50      391023.20      -0.0627326
      66.0000      406279.40      391023.20      -0.0928035
      69.0000      392225.10      391023.20      -0.1219948
      72.0000      398366.60      391023.20      -0.1068247
      75.0000      420101.40      391023.20      -0.0543110
      78.0000      438522.10      391023.20      -0.0077284
      81.0000      439335.10      391023.20      -0.0023873
      84.0000      455154.20      391023.20      0.0368114
      87.0000      443895.90      391023.20      0.0166283
      90.0000      421507.60      391023.20      -0.0286398
      93.0000      416706.70      391023.20      -0.0354914
      96.0000      419523.40      391023.20      -0.0247228
      99.0000      417019.30      391023.20      -0.0239850
      102.0000      416888.50      391023.20      -0.0174113
      105.0000      402544.80      391023.20      -0.0463322
      108.0000      402665.30      391023.20      -0.0407753
      111.0000      430875.70      391023.20      0.0345200
      114.0000      438927.60      391023.20      0.0618742
      117.0000      450479.10      391023.20      0.0962477
      120.0000      449376.30      391023.20      0.1008429
      123.0000      449424.80      391023.20      0.1104421
      126.0000      452079.60      391023.20      0.1259610
      129.0000      452079.60      391023.20      0.1332736
      132.0000      448549.80      391023.20      0.1328773
      135.0000      398688.10      391023.20      0.0162768
      138.0000      394836.40      391023.20      0.0147987
      141.0000      381982.00      391023.20      -0.0116365
      144.0000      387964.90      391023.20      0.0120559
      147.0000      401990.40      391023.20      0.0588110
      150.0000      404202.30      391023.20      0.0734341
      153.0000      421358.50      391023.20      0.1269136
      156.0000      417151.60      391023.20      0.1252554
      159.0000      403096.30      391023.20      0.0978568
      162.0000      386183.10      391023.20      0.0602576
      165.0000      382029.80      391023.20      0.0562435
      168.0000      363623.70      391023.20      0.0141682
      171.0000      365742.20      391023.20      0.0297708
      174.0000      357686.00      391023.20      0.0146283
      177.0000      355824.40      391023.20      0.0161940
      180.0000      355514.20      391023.20      0.0240986
      183.0000      359418.90      391023.20      0.0445054
      186.0000      357922.40      391023.20      0.0471007
      189.0000      341419.40      391023.20      0.0051047
      192.0000      336944.10      391023.20      0.0000142
      195.0000      326962.90      391023.20      -0.0219682
      198.0000      323655.10      391023.20      -0.0265657
      201.0000      325912.90      391023.20      -0.0144077
      204.0000      310135.30      391023.20      -0.0553162
      207.0000      299000.40      391023.20      -0.0833436
      210.0000      289794.50      391023.20      -0.1081014
      213.0000      285406.40      391023.20      -0.1178639
      216.0000      305320.00      391023.20      -0.0506493
      219.0000      300218.50      391023.20      -0.0622631
      222.0000      301638.30      391023.20      -0.0558160
      225.0000      298979.70      391023.20      -0.0615060
      228.0000      299023.50      391023.20      -0.0574890
      231.0000      290259.80      391023.20      -0.0830363
      234.0000      301925.50      391023.20      -0.0461787
      237.0000      291427.60      391023.20      -0.0784738
      240.0000      298591.80      391023.20      -0.0540217
      243.0000      303170.90      391023.20      -0.0399130
      246.0000      302629.80      391023.20      -0.0438782
      249.0000      288404.50      391023.20      -0.0899464
      252.0000      285085.00      391023.20      -0.1010115
      255.0000      287633.30      391023.20      -0.0960258
      258.0000      298140.00      391023.20      -0.0676868
      261.0000      298038.90      391023.20      -0.0713866
      264.0000      314661.30      391023.20      -0.0231718
      267.0000      318148.10      391023.20      -0.0186854
      270.0000      324837.30      391023.20      -0.0056741
      273.0000      329627.70      391023.20      0.0026468
      276.0000      332065.90      391023.20      0.0032361
      279.0000      331483.30      391023.20      -0.0080757
      282.0000      347219.90      391023.20      0.0283268
      285.0000      350593.20      391023.20      0.0289664
      288.0000      365288.40      391023.20      0.0614677
      291.0000      364873.60      391023.20      0.0469644
      294.0000      370464.70      391023.20      0.0493081
      297.0000      369379.90      391023.20      0.0340252
      300.0000      375369.40      391023.20      0.0372314
      303.0000      395147.10      391023.20      0.0750501
      306.0000      412904.80      391023.20      0.1062054
      309.0000      430199.80      391023.20      0.1361103
      312.0000      427478.30      391023.20      0.1111567
      315.0000      397413.50      391023.20      0.0144611
      318.0000      389164.60      391023.20      -0.0239647
      321.0000      381416.10      391023.20      -0.0590256
      324.0000      381061.30      391023.20      -0.0770503
      327.0000      390761.80      391023.20      -0.0728278
      330.0000      437438.70      391023.20      0.0180044
      333.0000      457326.00      391023.20      0.0446486
      336.0000      466870.80      391023.20      0.0446242
      339.0000      472286.20      391023.20      0.0334933
      342.0000      475819.40      391023.20      0.0196372
      345.0000      498081.40      391023.20      0.0458073
      348.0000      508425.20      391023.20      0.0437132
      351.0000      487944.20      391023.20      -0.0218138
      354.0000      482071.00      391023.20      -0.0546884
      357.0000      469400.20      391023.20      -0.0992718

       12     121       19.5900     45.0000      1.00000      0.00000
      0.0000      409202.00      369494.80      -0.0118702
      3.0000      426277.10      369494.80      0.0209226
      6.0000      436026.00      369494.80      0.0347464
      9.0000      415828.00      369494.80      -0.0208093
      12.0000      414319.80      369494.80      -0.0296029
      15.0000      427770.80      369494.80      -0.0038021
      18.0000      456514.10      369494.80      0.0561591
      21.0000      463880.30      369494.80      0.0679563
      24.0000      444978.90      369494.80      0.0214061
      27.0000      439191.20      369494.80      0.0045169
      30.0000      413891.50      369494.80      -0.0574838
      33.0000      405772.00      369494.80      -0.0782322
      36.0000      407896.00      369494.80      -0.0740395
      39.0000      412571.50      369494.80      -0.0651234
      42.0000      445362.80      369494.80      0.0068297
      45.0000      480535.60      369494.80      0.0861081
      48.0000      480535.60      369494.80      0.0871226
      51.0000      488672.70      369494.80      0.1053242
      54.0000      483553.60      369494.80      0.0933673
      57.0000      465421.20      369494.80      0.0541141
      60.0000      427876.60      369494.80      -0.0284011
      63.0000      407583.80      369494.80      -0.0734142
      66.0000      395137.60      369494.80      -0.1006643
      69.0000      385592.50      369494.80      -0.1192602
      72.0000      406705.40      369494.80      -0.0673340
      75.0000      401782.60      369494.80      -0.0764575
      78.0000      420994.40      369494.80      -0.0295447
      81.0000      426904.70      369494.80      -0.0109423
      84.0000      431119.40      369494.80      0.0038612
      87.0000      406903.50      369494.80      -0.0491651
      90.0000      404272.90      369494.80      -0.0512354
      93.0000      401483.00      369494.80      -0.0516978
      96.0000      390392.30      369494.80      -0.0723152
      99.0000      409594.40      369494.80      -0.0222824
      102.0000      422485.00      369494.80      0.0142691
      105.0000      414230.00      369494.80      0.0019641
      108.0000      411634.20      369494.80      0.0024500
      111.0000      413525.30      369494.80      0.0126462
      114.0000      430968.80      369494.80      0.0627267
      117.0000      429258.20      369494.80      0.0674608
      120.0000      426787.00      369494.80      0.0691974
      123.0000      424125.00      369494.80      0.0694104
      126.0000      429649.30      369494.80      0.0920388
      129.0000      419154.30      369494.80      0.0751599
      132.0000      403308.70      369494.80      0.0427173
      135.0000      393806.60      369494.80      0.0254538
      138.0000      402083.50      369494.80      0.0563640
      141.0000      398528.90      369494.80      0.0572350
      144.0000      390569.00      369494.80      0.0446460
      147.0000      381014.20      369494.80      0.0270163
      150.0000      373830.80      369494.80      0.0173406
      153.0000      384542.20      369494.80      0.0569943
      156.0000      387888.30      369494.80      0.0751023
      159.0000      367501.40      369494.80      0.0269648
      162.0000      362351.50      369494.80      0.0227523
      165.0000      362407.80      369494.80      0.0331957
      168.0000      351217.00      369494.80      0.0095620
      171.0000      341122.40      369494.80      -0.0112062
      174.0000      336318.80      369494.80      -0.0151535
      177.0000      333598.50      369494.80      -0.0135656
      180.0000      343326.40      369494.80      0.0232243
      183.0000      342436.90      369494.80      0.0291690
      186.0000      335335.00      369494.80      0.0178955
      189.0000      323286.80      369494.80      -0.0097101
      192.0000      315121.90      369494.80      -0.0276731
      195.0000      308090.20      369494.80      -0.0417039
      198.0000      301795.30      369494.80      -0.0523721
      201.0000      316873.40      369494.80      0.0030092
      204.0000      305587.50      369494.80      -0.0265095
      207.0000      303359.50      369494.80      -0.0264502
      210.0000      298042.40      369494.80      -0.0354291
      213.0000      284144.90      369494.80      -0.0742239
      216.0000      288722.20      369494.80      -0.0544976
      219.0000      273688.50      369494.80      -0.0980631
      222.0000      281131.20      369494.80      -0.0670155
      225.0000      283719.70      369494.80      -0.0538450
      228.0000      301293.60      369494.80      0.0083817
      231.0000      305063.40      369494.80      0.0259370
      234.0000      295149.90      369494.80      -0.0024605
      237.0000      301582.80      369494.80      0.0220231
      240.0000      284357.00      369494.80      -0.0347568
      243.0000      267446.70      369494.80      -0.0894972
      246.0000      261762.10      369494.80      -0.1064360
      249.0000      258852.30      369494.80      -0.1163337
      252.0000      256454.20      369494.80      -0.1251453
      255.0000      257904.30      369494.80      -0.1195584
      258.0000      259815.50      369494.80      -0.1131115
      261.0000      278211.70      369494.80      -0.0530041
      264.0000      279468.60      369494.80      -0.0517315
      267.0000      284559.30      369494.80      -0.0363875
      270.0000      281186.00      369494.80      -0.0508958
      273.0000      288983.30      369494.80      -0.0302472
      276.0000      287982.90      369494.80      -0.0392729
      279.0000      317319.90      369494.80      0.0533840
      282.0000      320133.80      369494.80      0.0557530
      285.0000      310777.40      369494.80      0.0158437
      288.0000      327262.60      369494.80      0.0605211
      291.0000      325317.50      369494.80      0.0457859
      294.0000      328476.80      369494.80      0.0455369
      297.0000      341322.60      369494.80      0.0735234
      300.0000      345008.00      369494.80      0.0727478
      303.0000      348270.30      369494.80      0.0709758
      306.0000      379585.70      369494.80      0.1520018
      309.0000      392311.90      369494.80      0.1731782
      312.0000      371012.50      369494.80      0.0938816
      315.0000      359252.90      369494.80      0.0445477
      318.0000      357920.20      369494.80      0.0239918
      321.0000      371950.70      369494.80      0.0456440
      324.0000      358269.30      369494.80      -0.0093182
      327.0000      363061.00      369494.80      -0.0125173
      330.0000      382826.40      369494.80      0.0217297
      333.0000      417806.40      369494.80      0.0932693
      336.0000      422623.50      369494.80      0.0854622
      339.0000      413125.00      369494.80      0.0411546
      342.0000      401360.60      369494.80      -0.0097152
      345.0000      409055.70      369494.80      -0.0124014
      348.0000      408757.40      369494.80      -0.0329481
      351.0000      402836.40      369494.80      -0.0666489
      354.0000      387484.60      369494.80      -0.1228439
      357.0000      395061.70      369494.80      -0.1262275

       13     121       19.5900     48.0000      1.00000      0.00000
      0.0000      370153.00      344537.50      0.0281838
      3.0000      386656.90      344537.50      0.0602824
      6.0000      369340.90      344537.50      0.0024320
      9.0000      371587.30      344537.50      -0.0022653
      12.0000      378666.50      344537.50      0.0051228
      15.0000      374976.40      344537.50      -0.0137037
      18.0000      397270.60      344537.50      0.0377212
      21.0000      392966.20      344537.50      0.0184225
      24.0000      394772.30      344537.50      0.0145465
      27.0000      383645.50      344537.50      -0.0198506
      30.0000      377423.50      344537.50      -0.0397226
      33.0000      367904.40      344537.50      -0.0691035
      36.0000      388553.90      344537.50      -0.0225396
      39.0000      401358.80      344537.50      0.0065671
      42.0000      423124.40      344537.50      0.0590569
      45.0000      435925.50      344537.50      0.0873337
      48.0000      424098.40      344537.50      0.0543499
      51.0000      410013.70      344537.50      0.0185746
      54.0000      413300.50      344537.50      0.0266821
      57.0000      411225.20      344537.50      0.0197864
      60.0000      415160.40      344537.50      0.0283267
      63.0000      403694.80      344537.50      0.0013104
      66.0000      367376.30      344537.50      -0.0872585
      69.0000      355432.60      344537.50      -0.1171904
      72.0000      359397.70      344537.50      -0.1067436
      75.0000      365054.80      344537.50      -0.0895947
      78.0000      370335.60      344537.50      -0.0737002
      81.0000      368104.30      344537.50      -0.0782255
      84.0000      389537.00      344537.50      -0.0220358
      87.0000      370299.20      344537.50      -0.0657761
      90.0000      368257.80      344537.50      -0.0671495
      93.0000      375703.30      344537.50      -0.0459327
      96.0000      368467.30      344537.50      -0.0603762
      99.0000      370666.50      344537.50      -0.0488227
      102.0000      375952.00      344537.50      -0.0304563
      105.0000      368605.30      344537.50      -0.0458723
      108.0000      368489.60      344537.50      -0.0407034
      111.0000      368420.40      344537.50      -0.0337979
      114.0000      383906.10      344537.50      0.0125967
      117.0000      390123.50      344537.50      0.0340591
      120.0000      389332.70      344537.50      0.0392261
      123.0000      386192.10      344537.50      0.0392697
      126.0000      403700.00      344537.50      0.0933601
      129.0000      408361.00      344537.50      0.1126402
      132.0000      401534.10      344537.50      0.1029125
      135.0000      396520.40      344537.50      0.0986958
      138.0000      397164.90      344537.50      0.1081570
      141.0000      388708.40      344537.50      0.0920119
      144.0000      396679.00      344537.50      0.1244578
      147.0000      394749.70      344537.50      0.1292567
      150.0000      384498.90      344537.50      0.1080116
      153.0000      386478.60      344537.50      0.1221817
      156.0000      364674.50      344537.50      0.0690823
      159.0000      353209.00      344537.50      0.0452165
      162.0000      345079.50      344537.50      0.0287326
      165.0000      348708.10      344537.50      0.0479387
      168.0000      346777.30      344537.50      0.0526311
      171.0000      327462.70      344537.50      0.0032670
      174.0000      313040.10      344537.50      -0.0339245
      177.0000      310264.10      344537.50      -0.0345273
      180.0000      319328.50      344537.50      0.0038087
      183.0000      318154.20      344537.50      0.0089647
      186.0000      311633.60      344537.50      -0.0047723
      189.0000      306688.80      344537.50      -0.0124005
      192.0000      313134.70      344537.50      0.0182443
      195.0000      302882.50      344537.50      -0.0071354
      198.0000      305982.80      344537.50      0.0095097
      201.0000      289912.80      344537.50      -0.0358803
      204.0000      288573.60      344537.50      -0.0316181
      207.0000      268876.60      344537.50      -0.0914639
      210.0000      279753.60      344537.50      -0.0495204
      213.0000      259879.80      344537.50      -0.1106203
      216.0000      265744.50      344537.50      -0.0833345
      219.0000      265232.10      344537.50      -0.0802436
      222.0000      269020.20      344537.50      -0.0631120
      225.0000      277431.10      344537.50      -0.0278581
      228.0000      280278.70      344537.50      -0.0118892
      231.0000      288325.50      344537.50      0.0199749
      234.0000      278744.00      344537.50      -0.0111670
      237.0000      275739.80      344537.50      -0.0174244
      240.0000      275622.20      344537.50      -0.0140000
      243.0000      256257.00      344537.50      -0.0822359
      246.0000      251018.10      344537.50      -0.1003084
      249.0000      253914.40      344537.50      -0.0876041
      252.0000      252055.70      344537.50      -0.0930500
      255.0000      251821.80      344537.50      -0.0953356
      258.0000      261505.30      344537.50      -0.0618797
      261.0000      247569.50      344537.50      -0.1118194
      264.0000      273163.50      344537.50      -0.0216960
      267.0000      259600.40      344537.50      -0.0743489
      270.0000      258824.00      344537.50      -0.0807584
      273.0000      274345.80      344537.50      -0.0283276
      276.0000      271347.30      344537.50      -0.0436708
      279.0000      275086.00      344537.50      -0.0376693
      282.0000      292088.80      344537.50      0.0151000
      285.0000      284419.60      344537.50      -0.0173599
      288.0000      287989.10      344537.50      -0.0132840
      291.0000      302855.80      344537.50      0.0269027
      294.0000      298151.30      344537.50      0.0014714
      297.0000      304633.00      344537.50      0.0140374
      300.0000      324842.40      344537.50      0.0687126
      303.0000      331611.40      344537.50      0.0765739
      306.0000      339518.90      344537.50      0.0889270
      309.0000      351310.80      344537.50      0.1130337
      312.0000      356608.60      344537.50      0.1131667
      315.0000      360108.00      344537.50      0.1062358
      318.0000      366160.00      344537.50      0.1083509
      321.0000      367558.20      344537.50      0.0958500
      324.0000      371022.90      344537.50      0.0866805
      327.0000      378261.40      344537.50      0.0876067
      330.0000      376759.20      344537.50      0.0649555
      333.0000      378981.00      344537.50      0.0523605
      336.0000      382212.10      344537.50      0.0399042
      339.0000      372417.30      344537.50      -0.0074125
      342.0000      376416.60      344537.50      -0.0156077
      345.0000      383258.20      344537.50      -0.0176396
      348.0000      381626.40      344537.50      -0.0437290
      351.0000      383393.40      344537.50      -0.0604513
      354.0000      381614.20      344537.50      -0.0838433
      357.0000      364153.50      344537.50      -0.1447803

       14     121       19.5900     51.0000      1.00000      0.00000
      0.0000      324100.80      296112.70      0.0349290
      3.0000      326690.50      296112.70      0.0304815
      6.0000      324194.70      296112.70      0.0129616
      9.0000      322847.50      296112.70      -0.0025341
      12.0000      336293.60      296112.70      0.0266764
      15.0000      344287.50      296112.70      0.0424398
      18.0000      340745.30      296112.70      0.0252905
      21.0000      336471.40      296112.70      0.0039247
      24.0000      337627.70      296112.70      -0.0013454
      27.0000      318005.30      296112.70      -0.0639657
      30.0000      317106.80      296112.70      -0.0698139
      33.0000      330165.20      296112.70      -0.0375377
      36.0000      331679.20      296112.70      -0.0387799
      39.0000      361372.10      296112.70      0.0452711
      42.0000      383793.50      296112.70      0.1083539
      45.0000      375347.90      296112.70      0.0796828
      48.0000      358250.80      296112.70      0.0272475
      51.0000      347243.50      296112.70      -0.0038424
      54.0000      342364.80      296112.70      -0.0175246
      57.0000      367577.10      296112.70      0.0523689
      60.0000      375365.40      296112.70      0.0738786
      63.0000      346774.60      296112.70      -0.0053779
      66.0000      330436.80      296112.70      -0.0505301
      69.0000      319424.20      296112.70      -0.0829442
      72.0000      305443.90      296112.70      -0.1219574
      75.0000      306786.80      296112.70      -0.1138799
      78.0000      312038.80      296112.70      -0.0960635
      81.0000      307077.80      296112.70      -0.1099253
      84.0000      317824.90      296112.70      -0.0755960
      87.0000      321679.40      296112.70      -0.0585930
      90.0000      318918.50      296112.70      -0.0630132
      93.0000      327106.90      296112.70      -0.0368823
      96.0000      320651.10      296112.70      -0.0509242
      99.0000      328968.00      296112.70      -0.0191269
      102.0000      321077.90      296112.70      -0.0380880
      105.0000      324040.80      296112.70      -0.0257405
      108.0000      330613.00      296112.70      0.0009339
      111.0000      318113.90      296112.70      -0.0288563
      114.0000      319869.50      296112.70      -0.0181941
      117.0000      321641.50      296112.70      -0.0079016
      120.0000      309035.40      296112.70      -0.0387993
      123.0000      303306.20      296112.70      -0.0479817
      126.0000      335956.00      296112.70      0.0607865
      129.0000      338522.60      296112.70      0.0755725
      132.0000      366150.10      296112.70      0.1743713
      135.0000      357885.60      296112.70      0.1586162
      138.0000      346369.10      296112.70      0.1288893
      141.0000      345803.80      296112.70      0.1353566
      144.0000      347105.00      296112.70      0.1513835
      147.0000      335706.60      296112.70      0.1243573
      150.0000      349514.70      296112.70      0.1788837
      153.0000      340726.20      296112.70      0.1587248
      156.0000      320918.40      296112.70      0.1032994
      159.0000      291465.60      296112.70      0.0118561
      162.0000      286760.90      296112.70      0.0025092
      165.0000      280021.10      296112.70      -0.0123960
      168.0000      266566.50      296112.70      -0.0489801
      171.0000      275000.80      296112.70      -0.0097073
      174.0000      280919.80      296112.70      0.0186934
      177.0000      284224.30      296112.70      0.0402844
      180.0000      278422.40      296112.70      0.0305818
      183.0000      275942.30      296112.70      0.0303408
      186.0000      271105.70      296112.70      0.0191857
      189.0000      269453.10      296112.70      0.0224960
      192.0000      274341.00      296112.70      0.0522504
      195.0000      258111.90      296112.70      -0.0022599
      198.0000      258329.90      296112.70      0.0048543
      201.0000      243999.10      296112.70      -0.0422659
      204.0000      232519.40      296112.70      -0.0782233
      207.0000      226411.40      296112.70      -0.0967922
      210.0000      223576.00      296112.70      -0.1034174
      213.0000      224934.40      296112.70      -0.0902861
      216.0000      213689.00      296112.70      -0.1283951
      219.0000      221359.50      296112.70      -0.0931216
      222.0000      231502.30      296112.70      -0.0475713
      225.0000      246157.20      296112.70      0.0199742
      228.0000      250057.50      296112.70      0.0425263
      231.0000      236263.90      296112.70      -0.0124368
      234.0000      232238.10      296112.70      -0.0266512
      237.0000      233878.20      296112.70      -0.0145400
      240.0000      234312.40      296112.70      -0.0090909
      243.0000      230632.90      296112.70      -0.0246349
      246.0000      214155.40      296112.70      -0.0937238
      249.0000      211013.40      296112.70      -0.1041447
      252.0000      207425.60      296112.70      -0.1187398
      255.0000      203863.80      296112.70      -0.1365182
      258.0000      205522.50      296112.70      -0.1308396
      261.0000      205768.80      296112.70      -0.1293136
      264.0000      208296.90      296112.70      -0.1210318
      267.0000      222553.90      296112.70      -0.0664753
      270.0000      228670.30      296112.70      -0.0447092
      273.0000      239572.80      296112.70      -0.0020165
      276.0000      242878.00      296112.70      0.0053361
      279.0000      241259.20      296112.70      -0.0102034
      282.0000      247742.60      296112.70      0.0094581
      285.0000      255624.00      296112.70      0.0350127
      288.0000      246634.90      296112.70      -0.0113234
      291.0000      248092.30      296112.70      -0.0173539
      294.0000      249744.40      296112.70      -0.0203371
      297.0000      246494.30      296112.70      -0.0423569
      300.0000      261801.70      296112.70      0.0032288
      303.0000      255550.40      296112.70      -0.0352708
      306.0000      287898.90      296112.70      0.0734594
      309.0000      305042.70      296112.70      0.1224006
      312.0000      315118.30      296112.70      0.1400687
      315.0000      323496.20      296112.70      0.1502331
      318.0000      315713.80      296112.70      0.1055617
      321.0000      318367.70      296112.70      0.0967505
      324.0000      343771.10      296112.70      0.1609515
      327.0000      342513.90      296112.70      0.1341462
      330.0000      343166.30      296112.70      0.1164974
      333.0000      349684.60      296112.70      0.1160406
      336.0000      345002.50      296112.70      0.0766726
      339.0000      323938.60      296112.70      -0.0107678
      342.0000      319842.80      296112.70      -0.0419592
      345.0000      320011.30      296112.70      -0.0619398
      348.0000      327174.00      296112.70      -0.0644641
      351.0000      325936.30      296112.70      -0.0892576
      354.0000      321860.00      296112.70      -0.1191580
      357.0000      333100.20      296112.70      -0.1098166

       15     121       19.5900     54.0000      1.00000      0.00000
      0.0000      267394.60      260500.40      -0.0388477
      3.0000      293788.80      260500.40      0.0462645
      6.0000      292355.60      260500.40      0.0309705
      9.0000      301088.90      260500.40      0.0514140
      12.0000      309851.60      260500.40      0.0736886
      15.0000      294734.10      260500.40      0.0147062
      18.0000      291824.30      260500.40      -0.0025972
      21.0000      271036.90      260500.40      -0.0802450
      24.0000      272956.90      260500.40      -0.0782581
      27.0000      269202.70      260500.40      -0.0945849
      30.0000      279351.90      260500.40      -0.0653096
      33.0000      325313.50      260500.40      0.0834594
      36.0000      286980.30      260500.40      -0.0467282
      39.0000      303803.40      260500.40      0.0069863
      42.0000      327286.30      260500.40      0.0813493
      45.0000      329650.00      260500.40      0.0864710
      48.0000      321516.20      260500.40      0.0590332
      51.0000      318538.80      260500.40      0.0487059
      54.0000      316040.40      260500.40      0.0389203
      57.0000      329742.20      260500.40      0.0833783
      60.0000      330747.70      260500.40      0.0879679
      63.0000      317273.90      260500.40      0.0446450
      66.0000      284513.10      260500.40      -0.0632510
      69.0000      288169.30      260500.40      -0.0501007
      72.0000      285242.00      260500.40      -0.0570428
      75.0000      262989.60      260500.40      -0.1286523
      78.0000      249807.90      260500.40      -0.1713679
      81.0000      251593.10      260500.40      -0.1631213
      84.0000      263643.60      260500.40      -0.1192316
      87.0000      281631.80      260500.40      -0.0561193
      90.0000      281295.20      260500.40      -0.0548366
      93.0000      295340.20      260500.40      -0.0034212
      96.0000      280226.10      260500.40      -0.0493684
      99.0000      285879.20      260500.40      -0.0261591
      102.0000      300898.40      260500.40      0.0288998
      105.0000      289480.40      260500.40      -0.0047094
      108.0000      295093.90      260500.40      0.0209299
      111.0000      277579.80      260500.40      -0.0348630
      114.0000      277579.80      260500.40      -0.0302004
      117.0000      265847.40      260500.40      -0.0650132
      120.0000      277799.60      260500.40      -0.0160943
      123.0000      293440.80      260500.40      0.0451610
      126.0000      292543.10      260500.40      0.0480646
      129.0000      308063.00      260500.40      0.1119844
      132.0000      307588.70      260500.40      0.1186318
      135.0000      308005.90      260500.40      0.1271959
      138.0000      301878.20      260500.40      0.1121854
      141.0000      305857.80      260500.40      0.1361139
      144.0000      304108.20      260500.40      0.1385610
      147.0000      297776.80      260500.40      0.1223574
      150.0000      288719.00      260500.40      0.0962329
      153.0000      287944.70      260500.40      0.1028627
      156.0000      272490.80      260500.40      0.0521798
      159.0000      266253.00      260500.40      0.0352103
      162.0000      254881.00      260500.40      -0.0012491
      165.0000      232694.10      260500.40      -0.0798333
      168.0000      228323.70      260500.40      -0.0897972
      171.0000      231151.90      260500.40      -0.0721872
      174.0000      247243.90      260500.40      0.0005112
      177.0000      253584.70      260500.40      0.0354991
      180.0000      249614.60      260500.40      0.0272485
      183.0000      240321.20      260500.40      -0.0041974
      186.0000      242571.40      260500.40      0.0133273
      189.0000      248601.10      260500.40      0.0476107
      192.0000      240506.30      260500.40      0.0208653
      195.0000      237762.00      260500.40      0.0158230
      198.0000      230925.30      260500.40      -0.0056276
      201.0000      205304.20      260500.40      -0.1086826
      204.0000      196691.90      260500.40      -0.1406665
      207.0000      210278.40      260500.40      -0.0759410
      210.0000      210226.60      260500.40      -0.0694080
      213.0000      220443.10      260500.40      -0.0172315
      216.0000      200903.20      260500.40      -0.0996542
      219.0000      208880.60      260500.40      -0.0592454
      222.0000      230965.30      260500.40      0.0467868
      225.0000      230965.30      260500.40      0.0527202
      228.0000      230965.30      260500.40      0.0567585
      231.0000      225901.80      260500.40      0.0375289
      234.0000      222183.80      260500.40      0.0254094
      237.0000      219979.80      260500.40      0.0192019
      240.0000      220512.70      260500.40      0.0237490
      243.0000      206873.80      260500.40      -0.0374523
      246.0000      193720.00      260500.40      -0.0957848
      249.0000      192982.20      260500.40      -0.0976220
      252.0000      192511.60      260500.40      -0.0999777
      255.0000      194873.90      260500.40      -0.0886021
      258.0000      194009.40      260500.40      -0.0916629
      261.0000      191159.50      260500.40      -0.1056342
      264.0000      192740.90      260500.40      -0.1004870
      267.0000      206658.40      260500.40      -0.0372105
      270.0000      205273.00      260500.40      -0.0450355
      273.0000      225393.50      260500.40      0.0449286
      276.0000      219961.70      260500.40      0.0148017
      279.0000      215783.50      260500.40      -0.0086211
      282.0000      214814.60      260500.40      -0.0171736
      285.0000      225277.40      260500.40      0.0241874
      288.0000      222932.00      260500.40      0.0059591
      291.0000      220055.50      260500.40      -0.0136361
      294.0000      214223.20      260500.40      -0.0464606
      297.0000      219858.10      260500.40      -0.0304283
      300.0000      215673.20      260500.40      -0.0585104
      303.0000      221881.80      260500.40      -0.0402723
      306.0000      243160.10      260500.40      0.0413748
      309.0000      265735.00      260500.40      0.1243679
      312.0000      273615.10      260500.40      0.1432512
      315.0000      277044.60      260500.40      0.1439298
      318.0000      267687.30      260500.40      0.0912978
      321.0000      284497.20      260500.40      0.1428317
      324.0000      270233.40      260500.40      0.0693943
      327.0000      280056.20      260500.40      0.0926443
      330.0000      288679.80      260500.40      0.1091082
      333.0000      295816.80      260500.40      0.1171453
      336.0000      291197.90      260500.40      0.0810812
      339.0000      261910.80      260500.40      -0.0433883
      342.0000      253493.70      260500.40      -0.0903524
      345.0000      250228.00      260500.40      -0.1194672
      348.0000      260532.10      260500.40      -0.1003443
      351.0000      268154.80      260500.40      -0.0906254
      354.0000      294016.20      260500.40      -0.0225103
      357.0000      295190.10      260500.40      -0.0392389

       16     121       19.5900     57.0000      1.00000      0.00000
      0.0000      228886.60      211637.40      0.0417972
      3.0000      227791.60      211637.40      0.0226055
      6.0000      235714.10      211637.40      0.0472471
      9.0000      235714.10      211637.40      0.0338547
      12.0000      248299.60      211637.40      0.0740265
      15.0000      243479.30      211637.40      0.0432972
      18.0000      230236.80      211637.40      -0.0201400
      21.0000      218912.70      211637.40      -0.0776156
      24.0000      210864.50      211637.40      -0.1210863
      27.0000      226079.80      211637.40      -0.0627169
      30.0000      247214.50      211637.40      0.0207051
      33.0000      244355.70      211637.40      0.0012618
      36.0000      244036.50      211637.40      -0.0073900
      39.0000      256597.80      211637.40      0.0411496
      42.0000      264196.10      211637.40      0.0697780
      45.0000      259389.60      211637.40      0.0445954
      48.0000      270189.20      211637.40      0.0833395
      51.0000      263383.40      211637.40      0.0561094
      54.0000      264885.10      211637.40      0.0618284
      57.0000      259027.10      211637.40      0.0345552
      60.0000      253382.90      211637.40      0.0100822
      63.0000      245713.40      211637.40      -0.0180124
      66.0000      232935.50      211637.40      -0.0678595
      69.0000      236277.90      211637.40      -0.0566772
      72.0000      237727.30      211637.40      -0.0504325
      75.0000      226128.50      211637.40      -0.0925193
      78.0000      209533.90      211637.40      -0.1570258
      81.0000      209561.30      211637.40      -0.1578472
      84.0000      218458.10      211637.40      -0.1196228
      87.0000      221219.20      211637.40      -0.1027231
      90.0000      235066.40      211637.40      -0.0435868
      93.0000      252418.30      211637.40      0.0279827
      96.0000      234335.30      211637.40      -0.0411606
      99.0000      226866.80      211637.40      -0.0646715
      102.0000      234076.10      211637.40      -0.0311904
      105.0000      239134.40      211637.40      -0.0078963
      108.0000      230106.90      211637.40      -0.0389885
      111.0000      214461.30      211637.40      -0.0965524
      114.0000      219125.10      211637.40      -0.0728015
      117.0000      208216.30      211637.40      -0.1158298
      120.0000      226420.20      211637.40      -0.0302762
      123.0000      223734.50      211637.40      -0.0329007
      126.0000      242895.80      211637.40      0.0552434
      129.0000      252755.20      211637.40      0.1040257
      132.0000      270927.40      211637.40      0.1946703
      135.0000      280366.50      211637.40      0.2477521
      138.0000      269263.80      211637.40      0.2055712
      141.0000      266486.60      211637.40      0.2012207
      144.0000      261046.10      211637.40      0.1889856
      147.0000      250264.40      211637.40      0.1509076
      150.0000      251692.30      211637.40      0.1647354
      153.0000      246005.50      211637.40      0.1472808
      156.0000      232773.80      211637.40      0.0978967
      159.0000      211685.10      211637.40      0.0082414
      162.0000      206470.30      211637.40      -0.0105472
      165.0000      201910.00      211637.40      -0.0240826
      168.0000      183314.00      211637.40      -0.1030521
      171.0000      179862.70      211637.40      -0.1116449
      174.0000      195092.60      211637.40      -0.0306198
      177.0000      192777.70      211637.40      -0.0331637
      180.0000      198064.10      211637.40      0.0054709
      183.0000      194959.50      211637.40      -0.0016432
      186.0000      189494.10      211637.40      -0.0236584
      189.0000      202490.50      211637.40      0.0535885
      192.0000      196976.20      211637.40      0.0368277
      195.0000      192165.10      211637.40      0.0193966
      198.0000      180055.40      211637.40      -0.0392429
      201.0000      174818.50      211637.40      -0.0580126
      204.0000      165461.20      211637.40      -0.0985235
      207.0000      175086.30      211637.40      -0.0401194
      210.0000      174631.90      211637.40      -0.0375443
      213.0000      168981.70      211637.40      -0.0598987
      216.0000      174483.80      211637.40      -0.0200705
      219.0000      169625.00      211637.40      -0.0428178
      222.0000      173983.20      211637.40      -0.0138039
      225.0000      180085.40      211637.40      0.0294093
      228.0000      176512.70      211637.40      0.0165203
      231.0000      186021.70      211637.40      0.0743695
      234.0000      185031.30      211637.40      0.0722985
      237.0000      175912.30      211637.40      0.0263733
      240.0000      172332.00      211637.40      0.0105259
      243.0000      174033.60      211637.40      0.0210427
      246.0000      171155.00      211637.40      0.0058751
      249.0000      155013.00      211637.40      -0.0844515
      252.0000      161675.30      211637.40      -0.0431531
      255.0000      157181.40      211637.40      -0.0718922
      258.0000      156550.00      211637.40      -0.0758734
      261.0000      144237.30      211637.40      -0.1462554
      264.0000      151083.90      211637.40      -0.1069483
      267.0000      161996.20      211637.40      -0.0474527
      270.0000      156804.80      211637.40      -0.0803359
      273.0000      165149.20      211637.40      -0.0318792
      276.0000      168595.20      211637.40      -0.0165862
      279.0000      162827.40      211637.40      -0.0579113
      282.0000      168216.10      211637.40      -0.0315683
      285.0000      165287.30      211637.40      -0.0520935
      288.0000      171182.40      211637.40      -0.0269022
      291.0000      159230.00      211637.40      -0.1049701
      294.0000      161468.60      211637.40      -0.0992213
      297.0000      151861.40      211637.40      -0.1587852
      300.0000      167637.00      211637.40      -0.0832548
      303.0000      178131.10      211637.40      -0.0394034
      306.0000      184931.30      211637.40      -0.0129902
      309.0000      198083.60      211637.40      0.0455061
      312.0000      215939.00      211637.40      0.1216896
      315.0000      222066.10      211637.40      0.1348708
      318.0000      228717.40      211637.40      0.1534201
      321.0000      231164.60      211637.40      0.1487842
      324.0000      242237.40      211637.40      0.1811863
      327.0000      249737.00      211637.40      0.1953415
      330.0000      250954.30      211637.40      0.1822837
      333.0000      249944.10      211637.40      0.1567869
      336.0000      233054.30      211637.40      0.0553492
      339.0000      220748.50      211637.40      -0.0209173
      342.0000      220431.10      211637.40      -0.0392695
      345.0000      209060.60      211637.40      -0.1071619
      348.0000      202041.30      211637.40      -0.1582971
      351.0000      222505.80      211637.40      -0.0932316
      354.0000      236450.80      211637.40      -0.0547259
      357.0000      252188.60      211637.40      -0.0147263

       17     121       19.5900     60.0000      1.00000      0.00000
      0.0000      188636.70      180153.80      0.0037739
      3.0000      179192.90      180153.80      -0.0526041
      6.0000      196426.90      180153.80      0.0292591
      9.0000      204657.70      180153.80      0.0642827
      12.0000      205836.70      180153.80      0.0656454
      15.0000      189526.80      180153.80      -0.0235196
      18.0000      190624.30      180153.80      -0.0249000
      21.0000      184148.50      180153.80      -0.0631673
      24.0000      187848.30      180153.80      -0.0465308
      27.0000      172414.10      180153.80      -0.1278633
      30.0000      210065.30      180153.80      0.0565617
      33.0000      207612.70      180153.80      0.0407109
      36.0000      202789.80      180153.80      0.0156919
      39.0000      209249.20      180153.80      0.0454447
      42.0000      209858.90      180153.80      0.0442804
      45.0000      215938.00      180153.80      0.0729185
      48.0000      216009.10      180153.80      0.0737553
      51.0000      212472.20      180153.80      0.0545997
      54.0000      215383.30      180153.80      0.0662508
      57.0000      214379.10      180153.80      0.0614115
      60.0000      214151.00      180153.80      0.0619731
      63.0000      201641.70      180153.80      -0.0007269
      66.0000      190195.60      180153.80      -0.0588668
      69.0000      195843.60      180153.80      -0.0292197
      72.0000      198968.20      180153.80      -0.0111391
      75.0000      189169.30      180153.80      -0.0598885
      78.0000      189169.30      180153.80      -0.0601290
      81.0000      180150.40      180153.80      -0.1021563
      84.0000      172164.00      180153.80      -0.1389276
      87.0000      180008.70      180153.80      -0.0993864
      90.0000      180670.30      180153.80      -0.0952392
      93.0000      195727.50      180153.80      -0.0155825
      96.0000      196226.60      180153.80      -0.0092861
      99.0000      182822.00      180153.80      -0.0759354
      102.0000      185283.40      180153.80      -0.0614678
      105.0000      181458.50      180153.80      -0.0759665
      108.0000      187011.80      180153.80      -0.0436830
      111.0000      174025.20      180153.80      -0.1086967
      114.0000      178844.70      180153.80      -0.0810052
      117.0000      179386.90      180153.80      -0.0725647
      120.0000      185058.00      180153.80      -0.0390375
      123.0000      191218.00      180153.80      -0.0048835
      126.0000      187731.60      180153.80      -0.0188353
      129.0000      195134.40      180153.80      0.0265369
      132.0000      213230.30      180153.80      0.1267112
      135.0000      223211.40      180153.80      0.1829935
      138.0000      220853.80      180153.80      0.1765131
      141.0000      232152.90      180153.80      0.2448549
      144.0000      221925.50      180153.80      0.1955174
      147.0000      225624.40      180153.80      0.2197338
      150.0000      216679.50      180153.80      0.1781670
      153.0000      208683.20      180153.80      0.1424881
      156.0000      180289.00      180153.80      -0.0084776
      159.0000      186128.00      180153.80      0.0273668
      162.0000      186128.00      180153.80      0.0340496
      165.0000      172585.60      180153.80      -0.0343607
      168.0000      161588.70      180153.80      -0.0921668
      171.0000      159074.40      180153.80      -0.1028989
      174.0000      162429.10      180153.80      -0.0774835
      177.0000      168629.50      180153.80      -0.0356963
      180.0000      166061.70      180153.80      -0.0467857
      183.0000      161265.80      180153.80      -0.0704826
      186.0000      171471.60      180153.80      -0.0045365
      189.0000      167398.00      180153.80      -0.0220045
      192.0000      156776.70      180153.80      -0.0809719
      195.0000      165049.30      180153.80      -0.0282304
      198.0000      162534.00      180153.80      -0.0362595
      201.0000      165363.70      180153.80      -0.0139662
      204.0000      211803.90      180153.80      0.2668360
      207.0000      156493.60      180153.80      -0.0600912
      210.0000      162138.70      180153.80      -0.0195910
      213.0000      173013.10      180153.80      0.0510242
      216.0000      160195.30      180153.80      -0.0245453
      219.0000      160158.70      180153.80      -0.0206490
      222.0000      158687.40      180153.80      -0.0237251
      225.0000      170004.50      180153.80      0.0495904
      228.0000      164519.50      180153.80      0.0174293
      231.0000      163300.30      180153.80      0.0137639
      234.0000      163674.40      180153.80      0.0212694
      237.0000      160114.60      180153.80      0.0013625
      240.0000      159058.60      180153.80      -0.0044666
      243.0000      156802.50      180153.80      -0.0153992
      246.0000      149489.10      180153.80      -0.0575502
      249.0000      146963.10      180153.80      -0.0727912
      252.0000      164402.60      180153.80      0.0370885
      255.0000      144874.90      180153.80      -0.0839488
      258.0000      146625.90      180153.80      -0.0704990
      261.0000      143659.20      180153.80      -0.0901640
      264.0000      149205.00      180153.80      -0.0562907
      267.0000      147826.10      180153.80      -0.0636743
      270.0000      155690.50      180153.80      -0.0131540
      273.0000      156304.90      180153.80      -0.0118468
      276.0000      152002.80      180153.80      -0.0414204
      279.0000      157750.10      180153.80      -0.0050851
      282.0000      142821.50      180153.80      -0.1002265
      285.0000      142983.60      180153.80      -0.1033726
      288.0000      145151.70      180153.80      -0.0931978
      291.0000      143247.40      180153.80      -0.1062391
      294.0000      143808.00      180153.80      -0.1056954
      297.0000      147688.60      180153.80      -0.0875267
      300.0000      150075.20      180153.80      -0.0774708
      303.0000      147139.20      180153.80      -0.0982264
      306.0000      157470.10      180153.80      -0.0403368
      309.0000      175537.70      180153.80      0.0611026
      312.0000      190170.00      180153.80      0.1422122
      315.0000      211826.10      180153.80      0.2654630
      318.0000      200362.30      180153.80      0.1877577
      321.0000      206943.10      180153.80      0.2150352
      324.0000      207900.10      180153.80      0.2109525
      327.0000      211824.30      180153.80      0.2248301
      330.0000      211070.20      180153.80      0.2084007
      333.0000      197275.80      180153.80      0.1166229
      336.0000      179573.20      180153.80      0.0068855
      339.0000      170677.10      180153.80      -0.0514281
      342.0000      169900.20      180153.80      -0.0672731
      345.0000      165341.90      180153.80      -0.1043252
      348.0000      164768.60      180153.80      -0.1167650
      351.0000      157954.90      180153.80      -0.1622060
      354.0000      178100.80      180153.80      -0.0689463
      357.0000      183816.30      180153.80      -0.0529799

       18     121       19.5900     63.0000      1.00000      0.00000
      0.0000      160307.90      149353.40      -0.0076980
      3.0000      160084.50      149353.40      -0.0142352
      6.0000      160689.40      149353.40      -0.0116840
      9.0000      169492.70      149353.40      0.0413906
      12.0000      163029.80      149353.40      -0.0026003
      15.0000      167686.00      149353.40      0.0221857
      18.0000      155274.40      149353.40      -0.0532568
      21.0000      159890.70      149353.40      -0.0253773
      24.0000      161264.50      149353.40      -0.0205837
      27.0000      166545.70      149353.40      0.0093254
      30.0000      166696.10      149353.40      0.0117208
      33.0000      166427.00      149353.40      0.0102747
      36.0000      171426.70      149353.40      0.0377171
      39.0000      165035.40      149353.40      -0.0017553
      42.0000      170559.50      149353.40      0.0342398
      45.0000      173652.80      149353.40      0.0535347
      48.0000      173354.50      149353.40      0.0496591
      51.0000      172581.00      149353.40      0.0456000
      54.0000      182114.60      149353.40      0.1068835
      57.0000      174468.70      149353.40      0.0613197
      60.0000      169799.20      149353.40      0.0316679
      63.0000      161372.00      149353.40      -0.0177655
      66.0000      155085.10      149353.40      -0.0521458
      69.0000      163762.20      149353.40      0.0017660
      72.0000      167564.10      149353.40      0.0245392
      75.0000      147460.40      149353.40      -0.0957457
      78.0000      147675.30      149353.40      -0.0901726
      81.0000      149256.70      149353.40      -0.0795484
      84.0000      136923.70      149353.40      -0.1556382
      87.0000      150714.10      149353.40      -0.0665421
      90.0000      157248.60      149353.40      -0.0213998
      93.0000      161542.40      149353.40      0.0064734
      96.0000      154915.30      149353.40      -0.0337608
      99.0000      148302.70      149353.40      -0.0703518
      102.0000      149053.00      149353.40      -0.0610258
      105.0000      149471.20      149353.40      -0.0573141
      108.0000      155928.10      149353.40      -0.0146382
      111.0000      151231.60      149353.40      -0.0388318
      114.0000      165565.30      149353.40      0.0571947
      117.0000      149495.90      149353.40      -0.0440458
      120.0000      151034.50      149353.40      -0.0315109
      123.0000      152767.30      149353.40      -0.0142146
      126.0000      149159.20      149353.40      -0.0330266
      129.0000      149065.80      149353.40      -0.0322763
      132.0000      158313.20      149353.40      0.0315234
      135.0000      153332.40      149353.40      0.0056262
      138.0000      178348.00      149353.40      0.1744997
      141.0000      174975.80      149353.40      0.1545719
      144.0000      177176.90      149353.40      0.1741188
      147.0000      174412.70      149353.40      0.1632016
      150.0000      155376.60      149353.40      0.0404342
      153.0000      151787.20      149353.40      0.0182609
      156.0000      147803.70      149353.40      -0.0036393
      159.0000      142359.30      149353.40      -0.0338391
      162.0000      149642.30      149353.40      0.0189672
      165.0000      143447.90      149353.40      -0.0213601
      168.0000      139733.30      149353.40      -0.0415760
      171.0000      145317.70      149353.40      0.0031726
      174.0000      147067.10      149353.40      0.0181223
      177.0000      141283.30      149353.40      -0.0199266
      180.0000      133272.20      149353.40      -0.0702330
      183.0000      136283.80      149353.40      -0.0434580
      186.0000      135750.80      149353.40      -0.0451689
      189.0000      145231.60      149353.40      0.0237901
      192.0000      143309.50      149353.40      0.0160502
      195.0000      138994.00      149353.40      -0.0093169
      198.0000      133936.40      149353.40      -0.0439200
      201.0000      208888.00      149353.40      0.4953306
      204.0000      132939.10      149353.40      -0.0434316
      207.0000      128716.90      149353.40      -0.0696387
      210.0000      136997.30      149353.40      -0.0090750
      213.0000      134173.50      149353.40      -0.0273487
      216.0000      134774.60      149353.40      -0.0176702
      219.0000      131861.50      149353.40      -0.0356426
      222.0000      141604.20      149353.40      0.0357175
      225.0000      144313.50      149353.40      0.0578484
      228.0000      138203.40      149353.40      0.0178536
      231.0000      143168.60      149353.40      0.0566321
      234.0000      137538.70      149353.40      0.0145292
      237.0000      143001.90      149353.40      0.0569115
      240.0000      141202.40      149353.40      0.0476801
      243.0000      130427.80      149353.40      -0.0314021
      246.0000      125592.30      149353.40      -0.0687505
      249.0000      126034.30      149353.40      -0.0639448
      252.0000      128640.70      149353.40      -0.0416235
      255.0000      127439.50      149353.40      -0.0512294
      258.0000      119450.80      149353.40      -0.1128680
      261.0000      120814.70      149353.40      -0.1016416
      264.0000      129776.30      149353.40      -0.0332501
      267.0000      120644.70      149353.40      -0.1032590
      270.0000      128542.90      149353.40      -0.0475231
      273.0000      134912.00      149353.40      0.0001343
      276.0000      128972.10      149353.40      -0.0435945
      279.0000      129274.10      149353.40      -0.0450218
      282.0000      116448.80      149353.40      -0.1432880
      285.0000      127023.00      149353.40      -0.0656463
      288.0000      127413.60      149353.40      -0.0639954
      291.0000      126852.50      149353.40      -0.0732034
      294.0000      125680.30      149353.40      -0.0861354
      297.0000      123764.70      149353.40      -0.1011981
      300.0000      136640.90      149353.40      -0.0108879
      303.0000      130781.50      149353.40      -0.0598384
      306.0000      133318.90      149353.40      -0.0468626
      309.0000      137482.90      149353.40      -0.0196088
      312.0000      153084.00      149353.40      0.0860199
      315.0000      163897.20      149353.40      0.1533840
      318.0000      177180.50      149353.40      0.2391246
      321.0000      182495.80      149353.40      0.2706041
      324.0000      173974.30      149353.40      0.2029953
      327.0000      174717.30      149353.40      0.1969679
      330.0000      172676.30      149353.40      0.1744578
      333.0000      155398.10      149353.40      0.0510522
      336.0000      146850.00      149353.40      -0.0153935
      339.0000      143580.20      149353.40      -0.0478908
      342.0000      138413.20      149353.40      -0.0894459
      345.0000      143771.30      149353.40      -0.0604915
      348.0000      135862.50      149353.40      -0.1215908
      351.0000      144672.30      149353.40      -0.0760311
      354.0000      149433.30      149353.40      -0.0538755
      357.0000      150954.80      149353.40      -0.0521138

       19     121       19.5900     66.0000      1.00000      0.00000
      0.0000      131022.20      120485.60      0.0010985
      3.0000      124153.10      120485.60      -0.0512951
      6.0000      132094.30      120485.60      0.0090629
      9.0000      134067.90      120485.60      0.0210961
      12.0000      137069.00      120485.60      0.0420576
      15.0000      141341.80      120485.60      0.0757089
      18.0000      130687.20      120485.60      -0.0051549
      21.0000      126586.50      120485.60      -0.0386435
      24.0000      126611.50      120485.60      -0.0390837
      27.0000      125762.20      120485.60      -0.0434355
      30.0000      133109.80      120485.60      0.0129354
      33.0000      134624.00      120485.60      0.0228012
      36.0000      126848.70      120485.60      -0.0358181
      39.0000      126279.30      120485.60      -0.0373258
      42.0000      133875.20      120485.60      0.0213224
      45.0000      141432.00      120485.60      0.0780346
      48.0000      146109.30      120485.60      0.1154874
      51.0000      143853.10      120485.60      0.1018257
      54.0000      141955.00      120485.60      0.0884122
      57.0000      144458.30      120485.60      0.1074999
      60.0000      136337.00      120485.60      0.0478661
      63.0000      125674.10      120485.60      -0.0303394
      66.0000      121101.40      120485.60      -0.0645980
      69.0000      122474.80      120485.60      -0.0536808
      72.0000      126683.40      120485.60      -0.0176521
      75.0000      120261.80      120485.60      -0.0635062
      78.0000      113874.00      120485.60      -0.1122442
      81.0000      111656.60      120485.60      -0.1287268
      84.0000      109864.20      120485.60      -0.1388528
      87.0000      123665.10      120485.60      -0.0265379
      90.0000      123608.40      120485.60      -0.0257503
      93.0000      120871.80      120485.60      -0.0456112
      96.0000      118969.50      120485.60      -0.0559360
      99.0000      119288.10      120485.60      -0.0493618
      102.0000      118634.30      120485.60      -0.0533391
      105.0000      118745.60      120485.60      -0.0500831
      108.0000      124155.20      120485.60      -0.0013894
      111.0000      124211.70      120485.60      0.0031417
      114.0000      122914.80      120485.60      -0.0058440
      117.0000      121512.90      120485.60      -0.0140672
      120.0000      124156.80      120485.60      0.0131282
      123.0000      127367.20      120485.60      0.0432808
      126.0000      115541.50      120485.60      -0.0520783
      129.0000      119881.30      120485.60      -0.0127340
      132.0000      116158.10      120485.60      -0.0377631
      135.0000      129233.70      120485.60      0.0741898
      138.0000      136912.20      120485.60      0.1401954
      141.0000      139974.70      120485.60      0.1706026
      144.0000      135087.20      120485.60      0.1359724
      147.0000      129867.10      120485.60      0.0955518
      150.0000      119436.80      120485.60      0.0094581
      153.0000      109718.40      120485.60      -0.0684365
      156.0000      112545.80      120485.60      -0.0390320
      159.0000      113292.70      120485.60      -0.0301868
      162.0000      116350.40      120485.60      -0.0021217
      165.0000      114243.40      120485.60      -0.0154307
      168.0000      116869.50      120485.60      0.0123738
      171.0000      116884.00      120485.60      0.0146036
      174.0000      116739.70      120485.60      0.0153767
      177.0000      116565.70      120485.60      0.0188442
      180.0000      80223.60      120485.60      -0.2951808
      183.0000      113168.80      120485.60      -0.0048587
      186.0000      112338.50      120485.60      -0.0101979
      189.0000      111582.80      120485.60      -0.0120817
      192.0000      117596.90      120485.60      0.0450712
      195.0000      117180.50      120485.60      0.0423542
      198.0000      116496.50      120485.60      0.0383228
      201.0000      111855.00      120485.60      0.0014347
      204.0000      115510.70      120485.60      0.0371310
      207.0000      115209.00      120485.60      0.0347204
      210.0000      115064.90      120485.60      0.0353298
      213.0000      122811.30      120485.60      0.1093561
      216.0000      112303.00      120485.60      0.0164118
      219.0000      111461.10      120485.60      0.0083597
      222.0000      109759.40      120485.60      -0.0054560
      225.0000      124918.70      120485.60      0.1355408
      228.0000      126828.20      120485.60      0.1537611
      231.0000      127030.70      120485.60      0.1545917
      234.0000      120726.90      120485.60      0.0985589
      237.0000      119388.20      120485.60      0.0888503
      240.0000      115747.80      120485.60      0.0551700
      243.0000      110182.30      120485.60      0.0025987
      246.0000      102301.80      120485.60      -0.0684139
      249.0000      108777.40      120485.60      -0.0080700
      252.0000      110583.10      120485.60      0.0065186
      255.0000      104124.70      120485.60      -0.0547947
      258.0000      100959.30      120485.60      -0.0833142
      261.0000      101263.60      120485.60      -0.0803524
      264.0000      106983.00      120485.60      -0.0316466
      267.0000      106523.70      120485.60      -0.0390717
      270.0000      104549.00      120485.60      -0.0573872
      273.0000      109278.10      120485.60      -0.0160506
      276.0000      103751.40      120485.60      -0.0701278
      279.0000      103219.10      120485.60      -0.0787670
      282.0000      100506.40      120485.60      -0.1041721
      285.0000      99010.40      120485.60      -0.1199221
      288.0000      105308.00      120485.60      -0.0696923
      291.0000      114325.60      120485.60      0.0051145
      294.0000      104071.40      120485.60      -0.0873004
      297.0000      95572.70      120485.60      -0.1654438
      300.0000      111533.90      120485.60      -0.0333469
      303.0000      113392.30      120485.60      -0.0227774
      306.0000      114085.70      120485.60      -0.0203865
      309.0000      103597.00      120485.60      -0.1157900
      312.0000      115105.20      120485.60      -0.0260091
      315.0000      119576.30      120485.60      0.0053605
      318.0000      137759.70      120485.60      0.1523321
      321.0000      142030.40      120485.60      0.1789040
      324.0000      145275.30      120485.60      0.1946801
      327.0000      140347.50      120485.60      0.1456889
      330.0000      114207.80      120485.60      -0.0735020
      333.0000      121083.60      120485.60      -0.0269974
      336.0000      119658.80      120485.60      -0.0487040
      339.0000      119658.80      120485.60      -0.0562513
      342.0000      145180.10      120485.60      0.1361323
      345.0000      122701.30      120485.60      -0.0500429
      348.0000      121421.50      120485.60      -0.0708479
      351.0000      149260.00      120485.60      0.1322973
      354.0000      128970.00      120485.60      -0.0303955
      357.0000      131657.10      120485.60      -0.0223820

       20     121       19.5900     69.0000      1.00000      0.00000
      0.0000      123942.70      95572.80      0.1037129
      3.0000      99553.60      95572.80      -0.1054990
      6.0000      122338.60      95572.80      0.1073494
      9.0000      106955.80      95572.80      -0.0302083
      12.0000      107399.00      95572.80      -0.0228585
      15.0000      109412.30      95572.80      0.0048670
      18.0000      108633.50      95572.80      0.0043528
      21.0000      111015.30      95572.80      0.0273317
      24.0000      108502.00      95572.80      0.0081453
      27.0000      104018.10      95572.80      -0.0244176
      30.0000      102998.30      95572.80      -0.0286548
      33.0000      101595.90      95572.80      -0.0415933
      36.0000      104302.90      95572.80      -0.0113411
      39.0000      97150.80      95572.80      -0.0704902
      42.0000      104349.00      95572.80      0.0024839
      45.0000      109367.00      95572.80      0.0510529
      48.0000      109797.90      95572.80      0.0608369
      51.0000      105332.50      95572.80      0.0264624
      54.0000      107519.70      95572.80      0.0510238
      57.0000      115465.40      95572.80      0.1293110
      60.0000      107056.70      95572.80      0.0530472
      63.0000      96917.90      95572.80      -0.0388262
      66.0000      93902.90      95572.80      -0.0669657
      69.0000      97865.60      95572.80      -0.0274577
      72.0000      91123.60      95572.80      -0.0885395
      75.0000      97021.70      95572.80      -0.0222633
      78.0000      100067.10      95572.80      0.0092631
      81.0000      98952.60      95572.80      -0.0014336
      84.0000      94752.50      95572.80      -0.0372142
      87.0000      93319.40      95572.80      -0.0455370
      90.0000      96072.70      95572.80      -0.0175594
      93.0000      92137.60      95572.80      -0.0570636
      96.0000      87692.80      95572.80      -0.0958951
      99.0000      97102.70      95572.80      0.0063843
      102.0000      90757.50      95572.80      -0.0601938
      105.0000      110594.50      95572.80      0.1473807
      108.0000      95801.40      95572.80      0.0007407
      111.0000      94451.60      95572.80      -0.0091994
      114.0000      91970.60      95572.80      -0.0366842
      117.0000      92857.70      95572.80      -0.0254142
      120.0000      95588.00      95572.80      0.0104405
      123.0000      91234.60      95572.80      -0.0326285
      126.0000      92273.80      95572.80      -0.0235434
      129.0000      93698.10      95572.80      -0.0058123
      132.0000      92399.90      95572.80      -0.0128442
      135.0000      92169.80      95572.80      -0.0136149
      138.0000      99363.80      95572.80      0.0612920
      141.0000      98386.60      95572.80      0.0541857
      144.0000      97648.40      95572.80      0.0526873
      147.0000      94233.40      95572.80      0.0165055
      150.0000      85325.40      95572.80      -0.0817560
      153.0000      84726.80      95572.80      -0.0845835
      156.0000      88252.70      95572.80      -0.0408838
      159.0000      88252.70      95572.80      -0.0415920
      162.0000      90307.60      95572.80      -0.0213181
      165.0000      87402.40      95572.80      -0.0487128
      168.0000      85091.90      95572.80      -0.0691700
      171.0000      90408.50      95572.80      -0.0128945
      174.0000      90989.90      95572.80      -0.0082562
      177.0000      98244.80      95572.80      0.0757709
      180.0000      90568.60      95572.80      -0.0044437
      183.0000      89776.00      95572.80      -0.0157232
      186.0000      91700.60      95572.80      0.0041264
      189.0000      91831.00      95572.80      0.0103962
      192.0000      91460.00      95572.80      0.0090495
      195.0000      98931.40      95572.80      0.0880033
      198.0000      96785.20      95572.80      0.0636831
      201.0000      100071.20      95572.80      0.1048298
      204.0000      99903.40      95572.80      0.1045918
      207.0000      95754.10      95572.80      0.0549819
      210.0000      100500.00      95572.80      0.1072732
      213.0000      96071.90      95572.80      0.0631475
      216.0000      90070.30      95572.80      -0.0027927
      219.0000      89655.60      95572.80      -0.0115963
      222.0000      92385.70      95572.80      0.0190777
      225.0000      97286.70      95572.80      0.0776715
      228.0000      98377.10      95572.80      0.0888652
      231.0000      100052.10      95572.80      0.1029939
      234.0000      100197.80      95572.80      0.1057192
      237.0000      98618.80      95572.80      0.0921816
      240.0000      94859.90      95572.80      0.0486318
      243.0000      85041.10      95572.80      -0.0641083
      246.0000      85468.80      95572.80      -0.0576496
      249.0000      85196.00      95572.80      -0.0573725
      252.0000      93472.20      95572.80      0.0308047
      255.0000      93174.70      95572.80      0.0234053
      258.0000      92654.40      95572.80      0.0198706
      261.0000      88028.40      95572.80      -0.0285987
      264.0000      90389.00      95572.80      -0.0066627
      267.0000      93815.90      95572.80      0.0272642
      270.0000      91844.70      95572.80      0.0082023
      273.0000      83001.50      95572.80      -0.0872528
      276.0000      84534.50      95572.80      -0.0752074
      279.0000      79025.00      95572.80      -0.1385708
      282.0000      83104.00      95572.80      -0.0910172
      285.0000      87383.50      95572.80      -0.0437760
      288.0000      87045.90      95572.80      -0.0528513
      291.0000      86764.80      95572.80      -0.0583998
      294.0000      85290.30      95572.80      -0.0714344
      297.0000      82225.40      95572.80      -0.1052622
      300.0000      88306.60      95572.80      -0.0450905
      303.0000      87498.30      95572.80      -0.0556317
      306.0000      86317.30      95572.80      -0.0654885
      309.0000      83690.70      95572.80      -0.0955039
      312.0000      85695.00      95572.80      -0.0798656
      315.0000      91726.00      95572.80      -0.0160615
      318.0000      100175.90      95572.80      0.0771411
      321.0000      104826.30      95572.80      0.1238821
      324.0000      101300.60      95572.80      0.0798508
      327.0000      101000.40      95572.80      0.0760538
      330.0000      91004.20      95572.80      -0.0284263
      333.0000      91633.40      95572.80      -0.0256423
      336.0000      91633.40      95572.80      -0.0315272
      339.0000      99305.40      95572.80      0.0499131
      342.0000      91360.70      95572.80      -0.0325974
      345.0000      94732.80      95572.80      -0.0019184
      348.0000      97813.50      95572.80      0.0248847
      351.0000      97899.00      95572.80      0.0265030
      354.0000      99609.30      95572.80      0.0450298
      357.0000      104823.60      95572.80      0.0936106

