      20    2420    0     datakind beginning-row linenumbers
MSCD Version 1.00 Yufeng Chen and Michel A Van Hove
Lawrence Berkeley National Laboratory (LBNL), Berkeley, CA 94720
Copyright (c) Van Hove Group 1997. All rights reserved
--------------------------------------------------------------
angle-resolved photoemission extended fine structure (ARPEFS)
experimental data for Fe 2p3/2 from Fe on STO(100)  excited with hv=1810eV
provided by Pancotti et al. (LNLS in 9, June 2010)
   initial angular momentum (l) = 1
   photon polarization angle (polar, azimuth) = (  30.0,   0.0 ) (deg)
   sample temperature = 300 K
   photoemission angular scan curves
     (curve point theta phi weightc weighte//k intensity chiexp)
      20     2420       1       20     121     2420
       1     121       19.5900     12.0000      1.00000      0.00000
      0.0000      37882.80      39135.10      0.1021545
      3.0000      34422.40      39135.10      -0.0162470
      6.0000      37584.30      39135.10      0.0796527
      9.0000      47206.30      39135.10      0.0671234
      12.0000      35258.00      39135.10      0.0242349
      15.0000      41793.40      39135.10      0.0118209
      18.0000      32875.70      39135.10      -0.0587105
      21.0000      33249.30      39135.10      0.0386507
      24.0000      25884.50      39135.10      -0.0463311
      27.0000      38558.50      39135.10      0.0007723
      30.0000      35473.00      39135.10      -0.0087314
      33.0000      38115.10      39135.10      0.0612616
      36.0000      29743.00      39135.10      -0.0859497
      39.0000      38473.50      39135.10      0.0651189
      42.0000      38871.80      39135.10      0.0405119
      45.0000      27645.60      39135.10      -0.1158015
      48.0000      29864.00      39135.10      -0.0875031
      51.0000      28535.90      39135.10      -0.1061444
      54.0000      29220.20      39135.10      0.0003795
      57.0000      32463.10      39135.10      -0.0473586
      60.0000      37825.50      39135.10      0.0320491
      63.0000      31246.00      39135.10      -0.0418889
      66.0000      31723.50      39135.10      0.0067700
      69.0000      30356.50      39135.10      -0.0557101
      72.0000      33528.30      39135.10      0.0023190
      75.0000      35003.90      39135.10      0.0566708
      78.0000      37210.00      39135.10      0.0646280
      81.0000      35034.00      39135.10      -0.0259660
      84.0000      34379.40      39135.10      0.0205288
      87.0000      32227.70      39135.10      0.0190473
      90.0000      40771.40      39135.10      0.1021545
      93.0000      35695.00      39135.10      -0.0162470
      96.0000      39899.50      39135.10      0.0796527
      99.0000      30153.90      39135.10      0.0671234
      102.0000      39789.00      39135.10      0.0242348
      105.0000      31825.80      39135.10      0.0118209
      108.0000      26728.00      39135.10      -0.0587105
      111.0000      38446.80      39135.10      0.0386507
      114.0000      37125.60      39135.10      -0.0463311
      117.0000      31876.60      39135.10      0.0007723
      120.0000      33317.90      39135.10      -0.0087314
      123.0000      36105.70      39135.10      0.0612617
      126.0000      33973.20      39135.10      -0.0859497
      129.0000      37246.40      39135.10      0.0651189
      132.0000      30829.90      39135.10      0.0405119
      135.0000      27574.10      39135.10      -0.1158015
      138.0000      29664.20      39135.10      -0.0875031
      141.0000      32441.90      39135.10      -0.1061444
      144.0000      38574.00      39135.10      0.0003795
      147.0000      38574.00      39135.10      -0.0473586
      150.0000      37310.00      39135.10      0.0320491
      153.0000      37627.80      39135.10      -0.0418889
      156.0000      42949.40      39135.10      0.0067700
      159.0000      37032.80      39135.10      -0.0557101
      162.0000      39811.20      39135.10      0.0023190
      165.0000      40319.50      39135.10      0.0566708
      168.0000      37513.90      39135.10      0.0646280
      171.0000      35443.20      39135.10      -0.0259660
      174.0000      39850.20      39135.10      0.0205288
      177.0000      48479.20      39135.10      0.0190473
      180.0000      42227.30      39135.10      0.1021545
      183.0000      43232.20      39135.10      -0.0162470
      186.0000      45001.90      39135.10      0.0796527
      189.0000      44174.80      39135.10      0.0671234
      192.0000      40566.10      39135.10      0.0242349
      195.0000      42149.70      39135.10      0.0118209
      198.0000      41271.80      39135.10      -0.0587105
      201.0000      44075.90      39135.10      0.0386507
      204.0000      41948.70      39135.10      -0.0463311
      207.0000      47075.70      39135.10      0.0007722
      210.0000      40825.10      39135.10      -0.0087314
      213.0000      47546.50      39135.10      0.0612617
      216.0000      40656.10      39135.10      -0.0859497
      219.0000      43909.60      39135.10      0.0651189
      222.0000      42359.00      39135.10      0.0405119
      225.0000      41029.30      39135.10      -0.1158015
      228.0000      42733.80      39135.10      -0.0875031
      231.0000      42439.60      39135.10      -0.1061444
      234.0000      44353.40      39135.10      0.0003795
      237.0000      44596.30      39135.10      -0.0473586
      240.0000      47625.00      39135.10      0.0320491
      243.0000      41763.10      39135.10      -0.0418889
      246.0000      42866.10      39135.10      0.0067700
      249.0000      42610.30      39135.10      -0.0557101
      252.0000      41269.50      39135.10      0.0023190
      255.0000      40069.70      39135.10      0.0566708
      258.0000      46717.10      39135.10      0.0646280
      261.0000      44237.10      39135.10      -0.0259660
      264.0000      44284.60      39135.10      0.0205288
      267.0000      40879.90      39135.10      0.0190473
      270.0000      51122.60      39135.10      0.1021545
      273.0000      39606.10      39135.10      -0.0162470
      276.0000      45481.80      39135.10      0.0796527
      279.0000      45174.00      39135.10      0.0671234
      282.0000      43487.70      39135.10      0.0242349
      285.0000      41792.80      39135.10      0.0118209
      288.0000      47859.20      39135.10      -0.0587105
      291.0000      46702.50      39135.10      0.0386507
      294.0000      44953.60      39135.10      -0.0463311
      297.0000      38532.10      39135.10      0.0007723
      300.0000      45594.40      39135.10      -0.0087314
      303.0000      44129.30      39135.10      0.0612617
      306.0000      38785.70      39135.10      -0.0859498
      309.0000      46812.50      39135.10      0.0651189
      312.0000      51384.80      39135.10      0.0405119
      315.0000      43839.10      39135.10      -0.1158015
      318.0000      41730.60      39135.10      -0.0875031
      321.0000      37295.70      39135.10      -0.1061444
      324.0000      45717.40      39135.10      0.0003795
      327.0000      33340.60      39135.10      -0.0473586
      330.0000      38589.30      39135.10      0.0320491
      333.0000      39696.80      39135.10      -0.0418889
      336.0000      40328.40      39135.10      0.0067700
      339.0000      38378.00      39135.10      -0.0557101
      342.0000      42203.30      39135.10      0.0023190
      345.0000      49627.40      39135.10      0.0566708
      348.0000      45050.20      39135.10      0.0646280
      351.0000      37470.70      39135.10      -0.0259660
      354.0000      40907.30      39135.10      0.0205288
      357.0000      37517.70      39135.10      0.0190473
      360.0000      42227.30      39135.10      0.1021545
       2     121       19.5900     15.0000      1.00000      0.00000
      0.0000      40285.30      36944.60      0.0777033
      3.0000      47163.90      36944.60      0.0522931
      6.0000      45024.40      36944.60      0.1165902
      9.0000      44993.30      36944.60      0.0809932
      12.0000      42540.80      36944.60      0.0231407
      15.0000      48381.10      36944.60      0.1484104
      18.0000      43152.90      36944.60      0.0763088
      21.0000      39211.60      36944.60      0.0340693
      24.0000      37336.80      36944.60      -0.0291591
      27.0000      35473.80      36944.60      -0.0906165
      30.0000      41623.90      36944.60      -0.1082224
      33.0000      35237.30      36944.60      -0.0328229
      36.0000      35876.50      36944.60      0.0242646
      39.0000      35594.50      36944.60      -0.0432402
      42.0000      39443.00      36944.60      -0.0156876
      45.0000      39046.30      36944.60      -0.0234517
      48.0000      32842.40      36944.60      -0.0431299
      51.0000      33038.00      36944.60      -0.0340940
      54.0000      31484.10      36944.60      -0.0282250
      57.0000      36571.90      36944.60      -0.0432215
      60.0000      30008.40      36944.60      -0.0207611
      63.0000      30370.80      36944.60      -0.0057312
      66.0000      32897.50      36944.60      -0.0300224
      69.0000      24559.10      36944.60      -0.1679126
      72.0000      29720.00      36944.60      -0.0337755
      75.0000      33517.40      36944.60      -0.0943112
      78.0000      31139.00      36944.60      -0.0345127
      81.0000      33172.70      36944.60      0.0335843
      84.0000      39090.30      36944.60      -0.0032186
      87.0000      40418.10      36944.60      0.2156493
      90.0000      40208.90      36944.60      0.0777033
      93.0000      35629.50      36944.60      0.0522931
      96.0000      37481.80      36944.60      0.1165901
      99.0000      37565.60      36944.60      0.0809932
      102.0000      37028.20      36944.60      0.0231407
      105.0000      40075.10      36944.60      0.1484104
      108.0000      35286.30      36944.60      0.0763088
      111.0000      27173.30      36944.60      0.0340693
      114.0000      29863.90      36944.60      -0.0291591
      117.0000      23208.30      36944.60      -0.0906165
      120.0000      26109.40      36944.60      -0.1082224
      123.0000      31183.90      36944.60      -0.0328229
      126.0000      32258.80      36944.60      0.0242646
      129.0000      33112.40      36944.60      -0.0432401
      132.0000      32718.10      36944.60      -0.0156876
      135.0000      31612.90      36944.60      -0.0234517
      138.0000      32556.20      36944.60      -0.0431299
      141.0000      37158.00      36944.60      -0.0340940
      144.0000      33928.60      36944.60      -0.0282250
      147.0000      30401.30      36944.60      -0.0432215
      150.0000      41332.30      36944.60      -0.0207611
      153.0000      39922.10      36944.60      -0.0057312
      156.0000      34678.80      36944.60      -0.0300225
      159.0000      30337.80      36944.60      -0.1679126
      162.0000      36549.50      36944.60      -0.0337755
      165.0000      31864.40      36944.60      -0.0943112
      168.0000      34197.40      36944.60      -0.0345127
      171.0000      35592.20      36944.60      0.0335844
      174.0000      33075.60      36944.60      -0.0032187
      177.0000      41930.80      36944.60      0.2156493
      180.0000      42884.70      36944.60      0.0777033
      183.0000      37967.30      36944.60      0.0522931
      186.0000      46631.50      36944.60      0.1165902
      189.0000      39537.10      36944.60      0.0809932
      192.0000      39629.90      36944.60      0.0231407
      195.0000      41572.80      36944.60      0.1484105
      198.0000      41892.40      36944.60      0.0763088
      201.0000      45064.30      36944.60      0.0340693
      204.0000      37908.80      36944.60      -0.0291590
      207.0000      42641.50      36944.60      -0.0906165
      210.0000      36826.10      36944.60      -0.1082224
      213.0000      38557.50      36944.60      -0.0328229
      216.0000      42336.10      36944.60      0.0242646
      219.0000      36730.20      36944.60      -0.0432402
      222.0000      40160.90      36944.60      -0.0156876
      225.0000      38971.50      36944.60      -0.0234517
      228.0000      39327.60      36944.60      -0.0431299
      231.0000      38605.20      36944.60      -0.0340940
      234.0000      38531.00      36944.60      -0.0282250
      237.0000      36905.00      36944.60      -0.0432215
      240.0000      32682.70      36944.60      -0.0207611
      243.0000      35601.80      36944.60      -0.0057312
      246.0000      39287.40      36944.60      -0.0300224
      249.0000      34904.80      36944.60      -0.1679126
      252.0000      35666.10      36944.60      -0.0337755
      255.0000      33145.70      36944.60      -0.0943112
      258.0000      35046.30      36944.60      -0.0345127
      261.0000      40441.40      36944.60      0.0335844
      264.0000      37729.00      36944.60      -0.0032186
      267.0000      45521.70      36944.60      0.2156493
      270.0000      40254.40      36944.60      0.0777033
      273.0000      40230.50      36944.60      0.0522931
      276.0000      40313.10      36944.60      0.1165901
      279.0000      41827.90      36944.60      0.0809931
      282.0000      35081.00      36944.60      0.0231407
      285.0000      43158.90      36944.60      0.1484104
      288.0000      41705.70      36944.60      0.0763088
      291.0000      44710.70      36944.60      0.0340693
      294.0000      40657.60      36944.60      -0.0291590
      297.0000      35368.00      36944.60      -0.0906165
      300.0000      28705.50      36944.60      -0.1082224
      303.0000      39036.30      36944.60      -0.0328229
      306.0000      41855.00      36944.60      0.0242646
      309.0000      36102.30      36944.60      -0.0432402
      312.0000      33035.10      36944.60      -0.0156876
      315.0000      34382.10      36944.60      -0.0234517
      318.0000      36197.40      36944.60      -0.0431298
      321.0000      32728.70      36944.60      -0.0340940
      324.0000      38605.60      36944.60      -0.0282250
      327.0000      36085.90      36944.60      -0.0432215
      330.0000      38330.40      36944.60      -0.0207611
      333.0000      38631.80      36944.60      -0.0057312
      336.0000      34205.40      36944.60      -0.0300225
      339.0000      31200.00      36944.60      -0.1679126
      342.0000      37742.20      36944.60      -0.0337755
      345.0000      31874.70      36944.60      -0.0943112
      348.0000      38330.30      36944.60      -0.0345127
      351.0000      39197.00      36944.60      0.0335844
      354.0000      32545.60      36944.60      -0.0032186
      357.0000      45290.40      36944.60      0.2156493
      360.0000      42884.70      36944.60      0.0777033
       3     121       19.5900     18.0000      1.00000      0.00000
      0.0000      50226.30      43777.60      0.1442285
      3.0000      40282.80      43777.60      0.0573571
      6.0000      61495.90      43777.60      0.1622101
      9.0000      53627.30      43777.60      0.0547719
      12.0000      40068.00      43777.60      0.0996861
      15.0000      56040.70      43777.60      0.0920089
      18.0000      38508.20      43777.60      0.0114800
      21.0000      55862.40      43777.60      0.0070206
      24.0000      47565.30      43777.60      0.0536136
      27.0000      37408.10      43777.60      -0.0126448
      30.0000      41886.00      43777.60      -0.0627920
      33.0000      34281.70      43777.60      -0.0484546
      36.0000      49936.80      43777.60      0.0071316
      39.0000      36114.50      43777.60      -0.1088678
      42.0000      36273.90      43777.60      -0.0383041
      45.0000      52373.40      43777.60      0.0425952
      48.0000      50136.70      43777.60      0.0431024
      51.0000      26953.70      43777.60      -0.1101002
      54.0000      43409.10      43777.60      0.1132853
      57.0000      26721.90      43777.60      -0.0867039
      60.0000      34416.90      43777.60      -0.0139710
      63.0000      26035.80      43777.60      -0.0577669
      66.0000      32190.30      43777.60      -0.1445368
      69.0000      33012.50      43777.60      -0.0822993
      72.0000      28807.50      43777.60      -0.1655130
      75.0000      29100.50      43777.60      -0.0261100
      78.0000      31116.40      43777.60      -0.0424704
      81.0000      33863.40      43777.60      -0.0412534
      84.0000      38779.90      43777.60      0.0600212
      87.0000      44778.50      43777.60      0.0853521
      90.0000      46625.50      43777.60      0.1442285
      93.0000      36312.50      43777.60      0.0573571
      96.0000      48890.20      43777.60      0.1622101
      99.0000      36704.70      43777.60      0.0547719
      102.0000      48110.30      43777.60      0.0996860
      105.0000      37513.60      43777.60      0.0920089
      108.0000      43345.50      43777.60      0.0114800
      111.0000      31265.80      43777.60      0.0070206
      114.0000      34978.50      43777.60      0.0536136
      117.0000      38578.00      43777.60      -0.0126448
      120.0000      33772.60      43777.60      -0.0627919
      123.0000      45048.20      43777.60      -0.0484546
      126.0000      34674.00      43777.60      0.0071316
      129.0000      25666.00      43777.60      -0.1088678
      132.0000      40119.00      43777.60      -0.0383041
      135.0000      38427.20      43777.60      0.0425952
      138.0000      41277.60      43777.60      0.0431024
      141.0000      38774.80      43777.60      -0.1101002
      144.0000      55676.40      43777.60      0.1132853
      147.0000      36045.30      43777.60      -0.0867039
      150.0000      44736.10      43777.60      -0.0139710
      153.0000      40353.60      43777.60      -0.0577669
      156.0000      33759.70      43777.60      -0.1445368
      159.0000      34692.20      43777.60      -0.0822993
      162.0000      32218.80      43777.60      -0.1655130
      165.0000      49708.40      43777.60      -0.0261100
      168.0000      41862.00      43777.60      -0.0424703
      171.0000      38741.10      43777.60      -0.0412534
      174.0000      47420.80      43777.60      0.0600212
      177.0000      43110.70      43777.60      0.0853521
      180.0000      57743.10      43777.60      0.1442285
      183.0000      62808.40      43777.60      0.0573571
      186.0000      51542.20      43777.60      0.1622101
      189.0000      51137.60      43777.60      0.0547719
      192.0000      58330.50      43777.60      0.0996860
      195.0000      53769.00      43777.60      0.0920089
      198.0000      46930.80      43777.60      0.0114800
      201.0000      46482.90      43777.60      0.0070207
      204.0000      61229.20      43777.60      0.0536136
      207.0000      50868.20      43777.60      -0.0126448
      210.0000      46630.00      43777.60      -0.0627919
      213.0000      44906.40      43777.60      -0.0484546
      216.0000      47564.10      43777.60      0.0071316
      219.0000      49811.20      43777.60      -0.1088678
      222.0000      46398.60      43777.60      -0.0383041
      225.0000      43616.20      43777.60      0.0425952
      228.0000      44316.20      43777.60      0.0431024
      231.0000      45878.70      43777.60      -0.1101002
      234.0000      49998.00      43777.60      0.1132853
      237.0000      50707.20      43777.60      -0.0867039
      240.0000      51171.30      43777.60      -0.0139710
      243.0000      49197.20      43777.60      -0.0577669
      246.0000      39351.10      43777.60      -0.1445368
      249.0000      46118.50      43777.60      -0.0822993
      252.0000      40393.10      43777.60      -0.1655130
      255.0000      43891.50      43777.60      -0.0261100
      258.0000      48137.00      43777.60      -0.0424703
      261.0000      48315.40      43777.60      -0.0412534
      264.0000      48315.40      43777.60      0.0600212
      267.0000      42594.50      43777.60      0.0853521
      270.0000      48540.30      43777.60      0.1442285
      273.0000      48906.00      43777.60      0.0573571
      276.0000      43591.10      43777.60      0.1622101
      279.0000      46335.50      43777.60      0.0547719
      282.0000      46894.30      43777.60      0.0996860
      285.0000      46273.30      43777.60      0.0920089
      288.0000      49505.90      43777.60      0.0114800
      291.0000      44810.50      43777.60      0.0070207
      294.0000      42342.80      43777.60      0.0536136
      297.0000      47291.00      43777.60      -0.0126448
      300.0000      42728.80      43777.60      -0.0627919
      303.0000      41969.90      43777.60      -0.0484546
      306.0000      44350.90      43777.60      0.0071316
      309.0000      46483.10      43777.60      -0.1088678
      312.0000      45702.50      43777.60      -0.0383041
      315.0000      46872.90      43777.60      0.0425952
      318.0000      45231.20      43777.60      0.0431024
      321.0000      44795.80      43777.60      -0.1101002
      324.0000      43585.20      43777.60      0.1132853
      327.0000      47585.80      43777.60      -0.0867039
      330.0000      41639.30      43777.60      -0.0139710
      333.0000      49966.90      43777.60      -0.0577669
      336.0000      43376.50      43777.60      -0.1445368
      339.0000      46025.20      43777.60      -0.0822993
      342.0000      43649.10      43777.60      -0.1655130
      345.0000      46096.10      43777.60      -0.0261100
      348.0000      44967.00      43777.60      -0.0424704
      351.0000      44753.40      43777.60      -0.0412534
      354.0000      47491.00      43777.60      0.0600212
      357.0000      53708.60      43777.60      0.0853521
      360.0000      57743.10      43777.60      0.1442285
       4     121       19.5900     21.0000      1.00000      0.00000
      0.0000      63718.50      47381.20      -0.0034609
      3.0000      59887.10      47381.20      0.2697397
      6.0000      59486.20      47381.20      0.1298519
      9.0000      51217.50      47381.20      0.1640039
      12.0000      40249.90      47381.20      -0.0387819
      15.0000      41769.70      47381.20      0.0793538
      18.0000      53345.10      47381.20      0.0327529
      21.0000      51599.70      47381.20      0.0242430
      24.0000      40239.60      47381.20      -0.1137609
      27.0000      30801.60      47381.20      -0.2331413
      30.0000      29973.30      47381.20      -0.2152361
      33.0000      33922.30      47381.20      -0.1388479
      36.0000      51375.30      47381.20      0.0458726
      39.0000      43296.00      47381.20      0.0249114
      42.0000      39575.10      47381.20      0.0259511
      45.0000      33332.80      47381.20      -0.0250336
      48.0000      44034.20      47381.20      0.0372329
      51.0000      43605.50      47381.20      0.0518634
      54.0000      43605.50      47381.20      0.0559577
      57.0000      37132.10      47381.20      0.0395844
      60.0000      38236.80      47381.20      0.1237323
      63.0000      51921.50      47381.20      0.0456582
      66.0000      29450.10      47381.20      -0.1024680
      69.0000      29450.10      47381.20      -0.1093324
      72.0000      27064.80      47381.20      -0.0679903
      75.0000      33550.90      47381.20      -0.0816662
      78.0000      42318.00      47381.20      -0.0750133
      81.0000      36050.10      47381.20      0.0502979
      84.0000      33343.50      47381.20      -0.0509030
      87.0000      43450.10      47381.20      0.0471080
      90.0000      29720.90      47381.20      -0.0034609
      93.0000      63544.50      47381.20      0.2697397
      96.0000      48462.40      47381.20      0.1298519
      99.0000      48412.70      47381.20      0.1640038
      102.0000      36323.90      47381.20      -0.0387819
      105.0000      47599.40      47381.20      0.0793538
      108.0000      44849.40      47381.20      0.0327529
      111.0000      39180.40      47381.20      0.0242430
      114.0000      27647.30      47381.20      -0.1137609
      117.0000      30019.00      47381.20      -0.2331413
      120.0000      28922.40      47381.20      -0.2152361
      123.0000      38735.80      47381.20      -0.1388480
      126.0000      37805.50      47381.20      0.0458726
      129.0000      38347.80      47381.20      0.0249114
      132.0000      43088.10      47381.20      0.0259511
      135.0000      47055.90      47381.20      -0.0250336
      138.0000      46703.80      47381.20      0.0372329
      141.0000      40425.80      47381.20      0.0518634
      144.0000      48011.40      47381.20      0.0559576
      147.0000      51931.00      47381.20      0.0395844
      150.0000      42540.50      47381.20      0.1237323
      153.0000      42540.50      47381.20      0.0456582
      156.0000      42540.50      47381.20      -0.1024680
      159.0000      36400.10      47381.20      -0.1093324
      162.0000      40239.10      47381.20      -0.0679903
      165.0000      41262.90      47381.20      -0.0816663
      168.0000      38809.90      47381.20      -0.0750133
      171.0000      51329.20      47381.20      0.0502979
      174.0000      51329.20      47381.20      -0.0509030
      177.0000      51329.20      47381.20      0.0471080
      180.0000      56011.80      47381.20      -0.0034609
      183.0000      56256.90      47381.20      0.2697397
      186.0000      55406.10      47381.20      0.1298519
      189.0000      57328.50      47381.20      0.1640038
      192.0000      51876.70      47381.20      -0.0387819
      195.0000      53640.70      47381.20      0.0793538
      198.0000      60067.60      47381.20      0.0327529
      201.0000      48846.20      47381.20      0.0242430
      204.0000      51039.10      47381.20      -0.1137609
      207.0000      47017.40      47381.20      -0.2331413
      210.0000      51108.50      47381.20      -0.2152361
      213.0000      55045.50      47381.20      -0.1388479
      216.0000      47699.60      47381.20      0.0458725
      219.0000      61260.10      47381.20      0.0249114
      222.0000      51107.10      47381.20      0.0259511
      225.0000      49903.00      47381.20      -0.0250336
      228.0000      49489.10      47381.20      0.0372329
      231.0000      53900.30      47381.20      0.0518634
      234.0000      55046.80      47381.20      0.0559577
      237.0000      56616.90      47381.20      0.0395844
      240.0000      72596.00      47381.20      0.1237323
      243.0000      49405.40      47381.20      0.0456582
      246.0000      59529.00      47381.20      -0.1024680
      249.0000      50042.60      47381.20      -0.1093324
      252.0000      65049.70      47381.20      -0.0679903
      255.0000      50197.60      47381.20      -0.0816662
      258.0000      42898.30      47381.20      -0.0750133
      261.0000      48697.00      47381.20      0.0502979
      264.0000      53568.30      47381.20      -0.0509030
      267.0000      50414.60      47381.20      0.0471080
      270.0000      45569.80      47381.20      -0.0034609
      273.0000      61385.10      47381.20      0.2697397
      276.0000      52574.20      47381.20      0.1298519
      279.0000      66931.50      47381.20      0.1640039
      282.0000      57368.70      47381.20      -0.0387819
      285.0000      63761.00      47381.20      0.0793538
      288.0000      36083.60      47381.20      0.0327529
      291.0000      56226.90      47381.20      0.0242430
      294.0000      52719.00      47381.20      -0.1137609
      297.0000      38929.30      47381.20      -0.2331413
      300.0000      40910.50      47381.20      -0.2152361
      303.0000      35244.80      47381.20      -0.1388480
      306.0000      61987.00      47381.20      0.0458726
      309.0000      52667.10      47381.20      0.0249114
      312.0000      61617.60      47381.20      0.0259511
      315.0000      54719.00      47381.20      -0.0250336
      318.0000      54794.10      47381.20      0.0372329
      321.0000      61514.60      47381.20      0.0518634
      324.0000      51756.80      47381.20      0.0559576
      327.0000      50331.30      47381.20      0.0395844
      330.0000      61799.20      47381.20      0.1237323
      333.0000      49785.60      47381.20      0.0456582
      336.0000      39241.10      47381.20      -0.1024680
      339.0000      52719.20      47381.20      -0.1093324
      342.0000      46034.60      47381.20      -0.0679903
      345.0000      46828.40      47381.20      -0.0816662
      348.0000      45729.10      47381.20      -0.0750133
      351.0000      58124.70      47381.20      0.0502979
      354.0000      38751.50      47381.20      -0.0509030
      357.0000      46458.70      47381.20      0.0471080
      360.0000      56011.80      47381.20      -0.0034609
       5     121       19.5900     24.0000      1.00000      0.00000
      0.0000      57820.00      45860.40      0.1267866
      3.0000      67015.20      45860.40      0.1753465
      6.0000      52414.30      45860.40      0.1155753
      9.0000      44295.50      45860.40      0.1564125
      12.0000      47809.00      45860.40      0.1011225
      15.0000      39836.30      45860.40      0.1634746
      18.0000      48618.50      45860.40      -0.0810271
      21.0000      41106.00      45860.40      -0.1235661
      24.0000      50819.30      45860.40      0.0053134
      27.0000      50819.30      45860.40      -0.0898762
      30.0000      41886.10      45860.40      -0.0894355
      33.0000      40718.30      45860.40      -0.0442496
      36.0000      43003.70      45860.40      -0.0203732
      39.0000      22076.30      45860.40      -0.2225488
      42.0000      48814.40      45860.40      0.0322463
      45.0000      31968.20      45860.40      -0.0665563
      48.0000      37999.40      45860.40      -0.0225390
      51.0000      46294.80      45860.40      0.0500255
      54.0000      45321.50      45860.40      0.0698519
      57.0000      40091.40      45860.40      0.0807123
      60.0000      36701.80      45860.40      -0.0413584
      63.0000      40420.80      45860.40      0.0817725
      66.0000      37414.30      45860.40      -0.0225706
      69.0000      48224.60      45860.40      0.0535029
      72.0000      30993.60      45860.40      -0.0755905
      75.0000      34107.70      45860.40      -0.1110387
      78.0000      22269.70      45860.40      -0.1969134
      81.0000      38935.70      45860.40      -0.0174254
      84.0000      29619.70      45860.40      -0.0327573
      87.0000      51981.40      45860.40      0.0498932
      90.0000      44844.10      45860.40      0.1267866
      93.0000      37791.10      45860.40      0.1753465
      96.0000      42735.80      45860.40      0.1155753
      99.0000      54051.60      45860.40      0.1564125
      102.0000      50865.80      45860.40      0.1011225
      105.0000      52136.50      45860.40      0.1634747
      108.0000      23240.30      45860.40      -0.0810271
      111.0000      26921.10      45860.40      -0.1235662
      114.0000      34447.70      45860.40      0.0053134
      117.0000      24911.30      45860.40      -0.0898762
      120.0000      32162.30      45860.40      -0.0894355
      123.0000      35102.20      45860.40      -0.0442496
      126.0000      31138.40      45860.40      -0.0203732
      129.0000      34259.70      45860.40      -0.2225488
      132.0000      41760.30      45860.40      0.0322463
      135.0000      39734.60      45860.40      -0.0665563
      138.0000      37522.10      45860.40      -0.0225390
      141.0000      43166.20      45860.40      0.0500255
      144.0000      48641.80      45860.40      0.0698519
      147.0000      43973.40      45860.40      0.0807123
      150.0000      34333.00      45860.40      -0.0413584
      153.0000      54905.30      45860.40      0.0817725
      156.0000      41118.50      45860.40      -0.0225706
      159.0000      42955.50      45860.40      0.0535029
      162.0000      24037.50      45860.40      -0.0755905
      165.0000      39707.10      45860.40      -0.1110387
      168.0000      34220.50      45860.40      -0.1969134
      171.0000      51790.10      45860.40      -0.0174254
      174.0000      45332.40      45860.40      -0.0327573
      177.0000      39792.50      45860.40      0.0498932
      180.0000      53550.50      45860.40      0.1267866
      183.0000      50955.80      45860.40      0.1753465
      186.0000      53478.40      45860.40      0.1155753
      189.0000      49599.00      45860.40      0.1564125
      192.0000      50225.40      45860.40      0.1011225
      195.0000      60439.50      45860.40      0.1634746
      198.0000      49499.00      45860.40      -0.0810271
      201.0000      34748.70      45860.40      -0.1235661
      204.0000      46924.30      45860.40      0.0053134
      207.0000      56548.60      45860.40      -0.0898762
      210.0000      49592.00      45860.40      -0.0894355
      213.0000      47773.20      45860.40      -0.0442496
      216.0000      50395.00      45860.40      -0.0203732
      219.0000      39531.90      45860.40      -0.2225488
      222.0000      42708.10      45860.40      0.0322463
      225.0000      50929.80      45860.40      -0.0665563
      228.0000      57066.90      45860.40      -0.0225390
      231.0000      44094.10      45860.40      0.0500255
      234.0000      52013.90      45860.40      0.0698519
      237.0000      57288.10      45860.40      0.0807123
      240.0000      54699.50      45860.40      -0.0413584
      243.0000      52885.40      45860.40      0.0817725
      246.0000      48439.60      45860.40      -0.0225706
      249.0000      53075.70      45860.40      0.0535029
      252.0000      44313.80      45860.40      -0.0755905
      255.0000      44754.00      45860.40      -0.1110387
      258.0000      52893.90      45860.40      -0.1969134
      261.0000      52893.90      45860.40      -0.0174254
      264.0000      48426.00      45860.40      -0.0327573
      267.0000      47974.20      45860.40      0.0498932
      270.0000      56390.80      45860.40      0.1267866
      273.0000      70307.70      45860.40      0.1753465
      276.0000      61384.20      45860.40      0.1155753
      279.0000      66297.80      45860.40      0.1564125
      282.0000      53978.70      45860.40      0.1011225
      285.0000      62354.40      45860.40      0.1634746
      288.0000      53673.90      45860.40      -0.0810271
      291.0000      63849.20      45860.40      -0.1235662
      294.0000      55243.80      45860.40      0.0053134
      297.0000      37141.50      45860.40      -0.0898762
      300.0000      44855.90      45860.40      -0.0894355
      303.0000      53363.80      45860.40      -0.0442496
      306.0000      57852.20      45860.40      -0.0203732
      309.0000      48096.40      45860.40      -0.2225488
      312.0000      54186.00      45860.40      0.0322463
      315.0000      48842.80      45860.40      -0.0665563
      318.0000      46743.20      45860.40      -0.0225390
      321.0000      56197.40      45860.40      0.0500255
      324.0000      46403.50      45860.40      0.0698519
      327.0000      55605.80      45860.40      0.0807123
      330.0000      49483.90      45860.40      -0.0413584
      333.0000      45766.10      45860.40      0.0817725
      336.0000      49117.00      45860.40      -0.0225706
      339.0000      43356.80      45860.40      0.0535029
      342.0000      68318.80      45860.40      -0.0755905
      345.0000      40135.90      45860.40      -0.1110387
      348.0000      37465.10      45860.40      -0.1969134
      351.0000      31241.80      45860.40      -0.0174254
      354.0000      48789.20      45860.40      -0.0327573
      357.0000      42092.20      45860.40      0.0498932
      360.0000      53550.50      45860.40      0.1267866
       6     121       19.5900     27.0000      1.00000      0.00000
      0.0000      61987.20      44385.00      0.1371814
      3.0000      81884.90      44385.00      0.1724987
      6.0000      53247.70      44385.00      0.0204666
      9.0000      56453.10      44385.00      0.0869289
      12.0000      35288.00      44385.00      -0.0906235
      15.0000      57632.40      44385.00      0.1637751
      18.0000      48223.70      44385.00      0.0121390
      21.0000      49257.40      44385.00      0.0357585
      24.0000      47222.70      44385.00      -0.0037413
      27.0000      34823.50      44385.00      -0.1420815
      30.0000      34865.50      44385.00      -0.2273138
      33.0000      20424.90      44385.00      -0.2965459
      36.0000      46276.10      44385.00      0.0227866
      39.0000      52844.40      44385.00      0.0297495
      42.0000      54240.60      44385.00      0.1081368
      45.0000      35533.20      44385.00      0.0230402
      48.0000      39968.00      44385.00      0.0587554
      51.0000      48866.40      44385.00      0.0399600
      54.0000      41819.10      44385.00      0.1110582
      57.0000      38824.80      44385.00      -0.0997424
      60.0000      30139.40      44385.00      -0.0811082
      63.0000      42065.90      44385.00      0.0410292
      66.0000      27409.90      44385.00      0.0857402
      69.0000      27409.90      44385.00      0.0060545
      72.0000      27409.90      44385.00      -0.1170337
      75.0000      29103.10      44385.00      -0.0567553
      78.0000      34437.40      44385.00      0.0101680
      81.0000      27620.40      44385.00      -0.0672304
      84.0000      27620.40      44385.00      -0.0143843
      87.0000      45412.10      44385.00      0.0257278
      90.0000      41354.50      44385.00      0.1371814
      93.0000      41089.10      44385.00      0.1724987
      96.0000      39549.10      44385.00      0.0204666
      99.0000      33141.60      44385.00      0.0869289
      102.0000      33551.00      44385.00      -0.0906235
      105.0000      36272.80      44385.00      0.1637751
      108.0000      28250.50      44385.00      0.0121390
      111.0000      25019.60      44385.00      0.0357585
      114.0000      25019.60      44385.00      -0.0037412
      117.0000      26948.00      44385.00      -0.1420815
      120.0000      11369.80      44385.00      -0.2273138
      123.0000      25901.40      44385.00      -0.2965460
      126.0000      40450.00      44385.00      0.0227866
      129.0000      29323.90      44385.00      0.0297495
      132.0000      38950.80      44385.00      0.1081368
      135.0000      49194.10      44385.00      0.0230402
      138.0000      44264.10      44385.00      0.0587554
      141.0000      35453.80      44385.00      0.0399600
      144.0000      36811.10      44385.00      0.1110582
      147.0000      23189.00      44385.00      -0.0997424
      150.0000      38752.50      44385.00      -0.0811082
      153.0000      32315.60      44385.00      0.0410292
      156.0000      39273.90      44385.00      0.0857402
      159.0000      39273.90      44385.00      0.0060545
      162.0000      35387.20      44385.00      -0.1170337
      165.0000      37553.70      44385.00      -0.0567553
      168.0000      37553.70      44385.00      0.0101680
      171.0000      33548.50      44385.00      -0.0672303
      174.0000      46418.80      44385.00      -0.0143843
      177.0000      38582.60      44385.00      0.0257279
      180.0000      50152.30      44385.00      0.1371814
      183.0000      39486.70      44385.00      0.1724987
      186.0000      39791.80      44385.00      0.0204666
      189.0000      45926.00      44385.00      0.0869289
      192.0000      45593.50      44385.00      -0.0906235
      195.0000      56996.00      44385.00      0.1637751
      198.0000      56996.00      44385.00      0.0121390
      201.0000      56654.80      44385.00      0.0357585
      204.0000      59632.50      44385.00      -0.0037412
      207.0000      39812.80      44385.00      -0.1420815
      210.0000      51918.00      44385.00      -0.2273138
      213.0000      44970.40      44385.00      -0.2965460
      216.0000      41081.10      44385.00      0.0227866
      219.0000      41081.10      44385.00      0.0297495
      222.0000      52448.50      44385.00      0.1081368
      225.0000      54002.10      44385.00      0.0230402
      228.0000      45811.70      44385.00      0.0587554
      231.0000      52915.50      44385.00      0.0399600
      234.0000      61400.30      44385.00      0.1110582
      237.0000      49652.60      44385.00      -0.0997424
      240.0000      41508.00      44385.00      -0.0811082
      243.0000      56435.30      44385.00      0.0410292
      246.0000      56499.40      44385.00      0.0857402
      249.0000      59168.50      44385.00      0.0060545
      252.0000      54948.60      44385.00      -0.1170337
      255.0000      55631.40      44385.00      -0.0567553
      258.0000      50471.40      44385.00      0.0101680
      261.0000      44006.80      44385.00      -0.0672303
      264.0000      46472.30      44385.00      -0.0143843
      267.0000      50105.10      44385.00      0.0257279
      270.0000      57316.70      44385.00      0.1371815
      273.0000      59494.20      44385.00      0.1724987
      276.0000      54389.70      44385.00      0.0204666
      279.0000      68019.50      44385.00      0.0869289
      282.0000      49615.30      44385.00      -0.0906235
      285.0000      62724.20      44385.00      0.1637751
      288.0000      52432.70      44385.00      0.0121390
      291.0000      61668.50      44385.00      0.0357585
      294.0000      51102.10      44385.00      -0.0037412
      297.0000      54851.80      44385.00      -0.1420815
      300.0000      47413.10      44385.00      -0.2273138
      303.0000      34109.00      44385.00      -0.2965460
      306.0000      51089.10      44385.00      0.0227866
      309.0000      60818.80      44385.00      0.0297495
      312.0000      47366.60      44385.00      0.1081368
      315.0000      36303.80      44385.00      0.0230402
      318.0000      53408.70      44385.00      0.0587554
      321.0000      42570.40      44385.00      0.0399600
      324.0000      55516.60      44385.00      0.1110582
      327.0000      46905.30      44385.00      -0.0997424
      330.0000      48421.60      44385.00      -0.0811082
      333.0000      49854.30      44385.00      0.0410292
      336.0000      68657.00      44385.00      0.0857402
      339.0000      50589.40      44385.00      0.0060545
      342.0000      35716.10      44385.00      -0.1170336
      345.0000      40753.10      44385.00      -0.0567553
      348.0000      48946.50      44385.00      0.0101680
      351.0000      52838.30      44385.00      -0.0672303
      354.0000      45494.10      44385.00      -0.0143843
      357.0000      34165.40      44385.00      0.0257278
      360.0000      50152.30      44385.00      0.1371814
       7     121       19.5900     30.0000      1.00000      0.00000
      0.0000      147018.70      101076.30      -0.0235352
      3.0000      124515.90      101076.30      0.1505997
      6.0000      115642.30      101076.30      0.0238943
      9.0000      114596.10      101076.30      0.1305650
      12.0000      79344.00      101076.30      -0.0635691
      15.0000      125028.80      101076.30      -0.0394449
      18.0000      85311.90      101076.30      -0.0275226
      21.0000      130083.90      101076.30      0.0565817
      24.0000      130083.90      101076.30      0.0521493
      27.0000      84100.20      101076.30      -0.0937100
      30.0000      74172.90      101076.30      -0.0519770
      33.0000      105506.80      101076.30      0.0405632
      36.0000      72496.80      101076.30      -0.0310445
      39.0000      97301.80      101076.30      -0.0275838
      42.0000      61941.60      101076.30      -0.0050614
      45.0000      119244.80      101076.30      0.1128225
      48.0000      93751.80      101076.30      -0.0462896
      51.0000      93724.10      101076.30      -0.0316736
      54.0000      108819.80      101076.30      0.0273313
      57.0000      92708.90      101076.30      0.0171439
      60.0000      73910.40      101076.30      -0.0001239
      63.0000      75306.40      101076.30      0.0082339
      66.0000      81774.00      101076.30      0.0168234
      69.0000      73874.90      101076.30      -0.0303683
      72.0000      73874.90      101076.30      -0.1098646
      75.0000      96899.70      101076.30      -0.0647691
      78.0000      63730.00      101076.30      0.0043372
      81.0000      93870.80      101076.30      -0.0259830
      84.0000      78135.10      101076.30      0.0457140
      87.0000      76660.90      101076.30      0.0036758
      90.0000      68449.60      101076.30      -0.0235352
      93.0000      82391.60      101076.30      0.1505997
      96.0000      95656.00      101076.30      0.0238942
      99.0000      95656.00      101076.30      0.1305650
      102.0000      67918.70      101076.30      -0.0635691
      105.0000      58341.60      101076.30      -0.0394449
      108.0000      68420.10      101076.30      -0.0275226
      111.0000      87091.00      101076.30      0.0565817
      114.0000      69150.90      101076.30      0.0521493
      117.0000      65762.00      101076.30      -0.0937100
      120.0000      63071.80      101076.30      -0.0519770
      123.0000      74420.30      101076.30      0.0405632
      126.0000      86383.40      101076.30      -0.0310445
      129.0000      57089.50      101076.30      -0.0275838
      132.0000      107919.00      101076.30      -0.0050614
      135.0000      80840.00      101076.30      0.1128225
      138.0000      90442.60      101076.30      -0.0462896
      141.0000      63905.30      101076.30      -0.0316736
      144.0000      71468.40      101076.30      0.0273313
      147.0000      74491.90      101076.30      0.0171439
      150.0000      87524.50      101076.30      -0.0001240
      153.0000      91710.80      101076.30      0.0082339
      156.0000      76055.60      101076.30      0.0168234
      159.0000      81516.40      101076.30      -0.0303683
      162.0000      62365.60      101076.30      -0.1098646
      165.0000      80040.50      101076.30      -0.0647691
      168.0000      89984.20      101076.30      0.0043372
      171.0000      85295.60      101076.30      -0.0259830
      174.0000      77330.50      101076.30      0.0457140
      177.0000      88935.90      101076.30      0.0036757
      180.0000      100058.10      101076.30      -0.0235352
      183.0000      130262.80      101076.30      0.1505997
      186.0000      89427.60      101076.30      0.0238943
      189.0000      116745.90      101076.30      0.1305650
      192.0000      116071.20      101076.30      -0.0635691
      195.0000      106652.20      101076.30      -0.0394449
      198.0000      132987.70      101076.30      -0.0275226
      201.0000      101534.00      101076.30      0.0565817
      204.0000      108007.40      101076.30      0.0521493
      207.0000      87558.20      101076.30      -0.0937100
      210.0000      121566.30      101076.30      -0.0519770
      213.0000      131710.30      101076.30      0.0405632
      216.0000      104350.40      101076.30      -0.0310445
      219.0000      110400.00      101076.30      -0.0275838
      222.0000      116561.90      101076.30      -0.0050614
      225.0000      119921.90      101076.30      0.1128225
      228.0000      114969.50      101076.30      -0.0462896
      231.0000      133754.70      101076.30      -0.0316736
      234.0000      124920.70      101076.30      0.0273313
      237.0000      134505.10      101076.30      0.0171439
      240.0000      129654.70      101076.30      -0.0001239
      243.0000      119064.70      101076.30      0.0082339
      246.0000      137509.40      101076.30      0.0168234
      249.0000      129486.50      101076.30      -0.0303683
      252.0000      128359.50      101076.30      -0.1098646
      255.0000      91380.30      101076.30      -0.0647691
      258.0000      145319.20      101076.30      0.0043372
      261.0000      122034.90      101076.30      -0.0259830
      264.0000      126252.20      101076.30      0.0457140
      267.0000      122320.50      101076.30      0.0036757
      270.0000      108403.70      101076.30      -0.0235352
      273.0000      154211.90      101076.30      0.1505997
      276.0000      125281.00      101076.30      0.0238942
      279.0000      144773.00      101076.30      0.1305650
      282.0000      131272.00      101076.30      -0.0635691
      285.0000      119024.70      101076.30      -0.0394449
      288.0000      120232.30      101076.30      -0.0275226
      291.0000      114142.00      101076.30      0.0565817
      294.0000      131484.90      101076.30      0.0521493
      297.0000      141199.10      101076.30      -0.0937100
      300.0000      139383.60      101076.30      -0.0519770
      303.0000      114699.30      101076.30      0.0405632
      306.0000      131458.10      101076.30      -0.0310445
      309.0000      137362.50      101076.30      -0.0275838
      312.0000      111322.70      101076.30      -0.0050614
      315.0000      125049.50      101076.30      0.1128225
      318.0000      74873.40      101076.30      -0.0462896
      321.0000      98803.20      101076.30      -0.0316736
      324.0000      100994.20      101076.30      0.0273313
      327.0000      103514.80      101076.30      0.0171439
      330.0000      107493.60      101076.30      -0.0001239
      333.0000      111544.90      101076.30      0.0082339
      336.0000      107475.10      101076.30      0.0168234
      339.0000      97050.90      101076.30      -0.0303683
      342.0000      85450.40      101076.30      -0.1098646
      345.0000      81370.90      101076.30      -0.0647691
      348.0000      95936.40      101076.30      0.0043372
      351.0000      67910.40      101076.30      -0.0259830
      354.0000      112044.00      101076.30      0.0457140
      357.0000      88980.80      101076.30      0.0036758
      360.0000      100058.10      101076.30      -0.0235352
       8     121       19.5900     33.0000      1.00000      0.00000
      0.0000      90256.50      101190.90      -0.0315803
      3.0000      95768.30      101190.90      0.1337755
      6.0000      99352.40      101190.90      -0.0355739
      9.0000      88710.00      101190.90      -0.0692574
      12.0000      96834.90      101190.90      0.0639248
      15.0000      87220.60      101190.90      -0.0349656
      18.0000      84583.20      101190.90      0.0346809
      21.0000      89915.30      101190.90      -0.0082375
      24.0000      75604.40      101190.90      -0.0866833
      27.0000      74564.60      101190.90      -0.1452123
      30.0000      80182.30      101190.90      0.0643582
      33.0000      79871.00      101190.90      -0.1019809
      36.0000      77723.90      101190.90      -0.0779174
      39.0000      69848.50      101190.90      0.0382526
      42.0000      67183.40      101190.90      -0.0288260
      45.0000      73467.50      101190.90      -0.0481857
      48.0000      75754.30      101190.90      0.0707745
      51.0000      87921.40      101190.90      0.0872583
      54.0000      100500.10      101190.90      0.1381908
      57.0000      56927.50      101190.90      -0.0109787
      60.0000      74759.80      101190.90      0.0377061
      63.0000      91971.80      101190.90      0.0231691
      66.0000      69164.60      101190.90      -0.0218946
      69.0000      80705.10      101190.90      0.0833038
      72.0000      68038.90      101190.90      -0.0105313
      75.0000      56385.20      101190.90      -0.0096812
      78.0000      42205.30      101190.90      -0.0491775
      81.0000      65204.80      101190.90      0.0210036
      84.0000      46100.20      101190.90      -0.0807259
      87.0000      75037.90      101190.90      0.0859084
      90.0000      85419.30      101190.90      -0.0315803
      93.0000      93587.40      101190.90      0.1337755
      96.0000      73545.20      101190.90      -0.0355739
      99.0000      64673.40      101190.90      -0.0692574
      102.0000      73287.50      101190.90      0.0639248
      105.0000      76544.80      101190.90      -0.0349656
      108.0000      76404.50      101190.90      0.0346809
      111.0000      68227.50      101190.90      -0.0082375
      114.0000      78375.10      101190.90      -0.0866833
      117.0000      62797.20      101190.90      -0.1452123
      120.0000      96209.70      101190.90      0.0643582
      123.0000      65118.60      101190.90      -0.1019809
      126.0000      68525.30      101190.90      -0.0779174
      129.0000      78808.80      101190.90      0.0382526
      132.0000      67825.40      101190.90      -0.0288260
      135.0000      71938.60      101190.90      -0.0481857
      138.0000      76110.40      101190.90      0.0707745
      141.0000      92160.60      101190.90      0.0872583
      144.0000      87845.50      101190.90      0.1381908
      147.0000      88241.30      101190.90      -0.0109787
      150.0000      97922.80      101190.90      0.0377061
      153.0000      71148.10      101190.90      0.0231691
      156.0000      92813.00      101190.90      -0.0218946
      159.0000      90447.70      101190.90      0.0833038
      162.0000      81636.30      101190.90      -0.0105313
      165.0000      89445.10      101190.90      -0.0096812
      168.0000      109819.20      101190.90      -0.0491775
      171.0000      82745.30      101190.90      0.0210036
      174.0000      95131.50      101190.90      -0.0807259
      177.0000      97571.90      101190.90      0.0859084
      180.0000      78396.10      101190.90      -0.0315803
      183.0000      116679.20      101190.90      0.1337755
      186.0000      89788.30      101190.90      -0.0355740
      189.0000      101406.40      101190.90      -0.0692574
      192.0000      101406.40      101190.90      0.0639248
      195.0000      103079.80      101190.90      -0.0349656
      198.0000      129572.70      101190.90      0.0346809
      201.0000      106811.00      101190.90      -0.0082375
      204.0000      114178.80      101190.90      -0.0866833
      207.0000      97124.10      101190.90      -0.1452123
      210.0000      114525.50      101190.90      0.0643582
      213.0000      99204.60      101190.90      -0.1019809
      216.0000      121207.10      101190.90      -0.0779174
      219.0000      119919.00      101190.90      0.0382526
      222.0000      141419.40      101190.90      -0.0288260
      225.0000      130462.60      101190.90      -0.0481858
      228.0000      161984.40      101190.90      0.0707745
      231.0000      116984.10      101190.90      0.0872583
      234.0000      153234.00      101190.90      0.1381908
      237.0000      133173.80      101190.90      -0.0109787
      240.0000      131431.00      101190.90      0.0377061
      243.0000      139286.60      101190.90      0.0231691
      246.0000      102249.60      101190.90      -0.0218946
      249.0000      167750.90      101190.90      0.0833038
      252.0000      132163.80      101190.90      -0.0105313
      255.0000      143456.30      101190.90      -0.0096812
      258.0000      149111.40      101190.90      -0.0491774
      261.0000      178893.10      101190.90      0.0210036
      264.0000      138245.40      101190.90      -0.0807259
      267.0000      146187.40      101190.90      0.0859084
      270.0000      133548.50      101190.90      -0.0315803
      273.0000      149211.90      101190.90      0.1337755
      276.0000      125652.50      101190.90      -0.0355740
      279.0000      124045.50      101190.90      -0.0692574
      282.0000      166771.80      101190.90      0.0639248
      285.0000      118660.20      101190.90      -0.0349656
      288.0000      128204.80      101190.90      0.0346809
      291.0000      138556.60      101190.90      -0.0082375
      294.0000      91887.80      101190.90      -0.0866833
      297.0000      109776.60      101190.90      -0.1452123
      300.0000      132953.00      101190.90      0.0643582
      303.0000      116186.60      101190.90      -0.1019809
      306.0000      102190.40      101190.90      -0.0779174
      309.0000      160287.80      101190.90      0.0382526
      312.0000      125310.80      101190.90      -0.0288260
      315.0000      109221.40      101190.90      -0.0481857
      318.0000      126909.20      101190.90      0.0707745
      321.0000      134128.20      101190.90      0.0872583
      324.0000      107899.10      101190.90      0.1381908
      327.0000      130023.00      101190.90      -0.0109787
      330.0000      110785.40      101190.90      0.0377061
      333.0000      102299.40      101190.90      0.0231691
      336.0000      124703.10      101190.90      -0.0218946
      339.0000      99223.90      101190.90      0.0833038
      342.0000      118112.20      101190.90      -0.0105313
      345.0000      118112.20      101190.90      -0.0096812
      348.0000      96341.00      101190.90      -0.0491775
      351.0000      94957.10      101190.90      0.0210036
      354.0000      99137.60      101190.90      -0.0807259
      357.0000      112392.30      101190.90      0.0859084
      360.0000      78396.10      101190.90      -0.0315803
       9     121       19.5900     36.0000      1.00000      0.00000
      0.0000      84387.70      84389.30      -0.0123125
      3.0000      83784.30      84389.30      -0.0328050
      6.0000      81057.30      84389.30      -0.0134811
      9.0000      80479.90      84389.30      0.0564877
      12.0000      80614.50      84389.30      0.0014416
      15.0000      77750.90      84389.30      -0.0500651
      18.0000      69676.40      84389.30      -0.0501594
      21.0000      49241.80      84389.30      -0.1659054
      24.0000      60419.90      84389.30      -0.1182242
      27.0000      67534.20      84389.30      -0.0580269
      30.0000      66763.20      84389.30      -0.0400013
      33.0000      63144.00      84389.30      -0.0513274
      36.0000      63144.00      84389.30      -0.0277819
      39.0000      70893.70      84389.30      0.0851175
      42.0000      73235.90      84389.30      0.0937320
      45.0000      66512.50      84389.30      0.0801240
      48.0000      72846.80      84389.30      0.0778897
      51.0000      74215.90      84389.30      0.0739873
      54.0000      75649.80      84389.30      0.0939109
      57.0000      58582.40      84389.30      0.0617545
      60.0000      69460.50      84389.30      0.1072624
      63.0000      62960.50      84389.30      0.0325167
      66.0000      61893.90      84389.30      0.0049641
      69.0000      67783.80      84389.30      0.0000529
      72.0000      55035.90      84389.30      -0.0051707
      75.0000      55365.40      84389.30      0.0302706
      78.0000      44240.00      84389.30      -0.0544938
      81.0000      60066.30      84389.30      -0.0125583
      84.0000      49950.20      84389.30      -0.0498329
      87.0000      50039.30      84389.30      -0.0213793
      90.0000      60637.70      84389.30      -0.0123125
      93.0000      52504.80      84389.30      -0.0328050
      96.0000      54847.90      84389.30      -0.0134811
      99.0000      63225.70      84389.30      0.0564877
      102.0000      56299.90      84389.30      0.0014416
      105.0000      50597.60      84389.30      -0.0500651
      108.0000      55956.80      84389.30      -0.0501594
      111.0000      47973.50      84389.30      -0.1659053
      114.0000      55124.70      84389.30      -0.1182242
      117.0000      56529.80      84389.30      -0.0580269
      120.0000      59555.50      84389.30      -0.0400013
      123.0000      59116.90      84389.30      -0.0513274
      126.0000      63898.30      84389.30      -0.0277819
      129.0000      62798.80      84389.30      0.0851175
      132.0000      74218.60      84389.30      0.0937320
      135.0000      77107.40      84389.30      0.0801239
      138.0000      70581.30      84389.30      0.0778897
      141.0000      72565.60      84389.30      0.0739873
      144.0000      71282.80      84389.30      0.0939109
      147.0000      77326.70      84389.30      0.0617545
      150.0000      87167.20      84389.30      0.1072624
      153.0000      73203.50      84389.30      0.0325167
      156.0000      71231.20      84389.30      0.0049641
      159.0000      69418.00      84389.30      0.0000530
      162.0000      73070.50      84389.30      -0.0051707
      165.0000      84578.50      84389.30      0.0302706
      168.0000      68921.00      84389.30      -0.0544938
      171.0000      75766.70      84389.30      -0.0125583
      174.0000      75664.00      84389.30      -0.0498329
      177.0000      73855.10      84389.30      -0.0213793
      180.0000      78120.10      84389.30      -0.0123125
      183.0000      77048.50      84389.30      -0.0328051
      186.0000      85382.80      84389.30      -0.0134811
      189.0000      92598.00      84389.30      0.0564877
      192.0000      85167.60      84389.30      0.0014416
      195.0000      84680.00      84389.30      -0.0500651
      198.0000      81904.40      84389.30      -0.0501594
      201.0000      81900.20      84389.30      -0.1659054
      204.0000      75168.80      84389.30      -0.1182242
      207.0000      89498.90      84389.30      -0.0580269
      210.0000      89159.70      84389.30      -0.0400013
      213.0000      95342.70      84389.30      -0.0513275
      216.0000      100588.30      84389.30      -0.0277819
      219.0000      108307.30      84389.30      0.0851175
      222.0000      111016.80      84389.30      0.0937320
      225.0000      107369.80      84389.30      0.0801240
      228.0000      103976.50      84389.30      0.0778897
      231.0000      111633.70      84389.30      0.0739873
      234.0000      110518.50      84389.30      0.0939109
      237.0000      111299.50      84389.30      0.0617545
      240.0000      112685.10      84389.30      0.1072624
      243.0000      115470.30      84389.30      0.0325167
      246.0000      117091.60      84389.30      0.0049641
      249.0000      110401.70      84389.30      0.0000529
      252.0000      116679.50      84389.30      -0.0051707
      255.0000      114277.40      84389.30      0.0302706
      258.0000      114082.60      84389.30      -0.0544938
      261.0000      114994.10      84389.30      -0.0125583
      264.0000      113589.00      84389.30      -0.0498329
      267.0000      118124.50      84389.30      -0.0213793
      270.0000      113263.90      84389.30      -0.0123125
      273.0000      121509.60      84389.30      -0.0328051
      276.0000      117348.40      84389.30      -0.0134811
      279.0000      123165.90      84389.30      0.0564877
      282.0000      120358.20      84389.30      0.0014416
      285.0000      112015.50      84389.30      -0.0500651
      288.0000      116304.40      84389.30      -0.0501594
      291.0000      110295.40      84389.30      -0.1659054
      294.0000      108607.20      84389.30      -0.1182242
      297.0000      104339.90      84389.30      -0.0580269
      300.0000      108066.50      84389.30      -0.0400013
      303.0000      102490.80      84389.30      -0.0513274
      306.0000      98527.60      84389.30      -0.0277819
      309.0000      127789.80      84389.30      0.0851175
      312.0000      105158.90      84389.30      0.0937320
      315.0000      110089.60      84389.30      0.0801240
      318.0000      111580.10      84389.30      0.0778897
      321.0000      96384.40      84389.30      0.0739873
      324.0000      104801.80      84389.30      0.0939109
      327.0000      111921.10      84389.30      0.0617545
      330.0000      95958.30      84389.30      0.1072624
      333.0000      94033.20      84389.30      0.0325167
      336.0000      86100.80      84389.30      0.0049641
      339.0000      82103.60      84389.30      0.0000529
      342.0000      91349.90      84389.30      -0.0051707
      345.0000      91793.60      84389.30      0.0302706
      348.0000      96510.20      84389.30      -0.0544938
      351.0000      77408.40      84389.30      -0.0125583
      354.0000      80579.40      84389.30      -0.0498329
      357.0000      87024.30      84389.30      -0.0213793
      360.0000      78120.10      84389.30      -0.0123125
       10     121       19.5900     39.0000      1.00000      0.00000
      0.0000      84911.20      84626.90      -0.0683062
      3.0000      82178.20      84626.90      -0.0651148
      6.0000      83966.50      84626.90      0.0362579
      9.0000      79465.70      84626.90      -0.0408693
      12.0000      78752.00      84626.90      -0.0578672
      15.0000      69997.20      84626.90      -0.0559764
      18.0000      65408.00      84626.90      -0.0765280
      21.0000      58416.50      84626.90      -0.1561121
      24.0000      64006.20      84626.90      -0.0966713
      27.0000      79807.00      84626.90      -0.0546706
      30.0000      72397.50      84626.90      -0.0480354
      33.0000      80502.50      84626.90      0.0088812
      36.0000      69234.50      84626.90      -0.0232232
      39.0000      79350.40      84626.90      0.0160324
      42.0000      83314.30      84626.90      0.1451086
      45.0000      83413.70      84626.90      0.1058461
      48.0000      79950.20      84626.90      0.0725655
      51.0000      83467.90      84626.90      0.1039569
      54.0000      78978.30      84626.90      0.1414542
      57.0000      83545.40      84626.90      0.1253791
      60.0000      74527.30      84626.90      0.1311019
      63.0000      75509.40      84626.90      0.1171192
      66.0000      67546.20      84626.90      0.0380050
      69.0000      67317.10      84626.90      0.0528329
      72.0000      69889.40      84626.90      0.0642551
      75.0000      57317.30      84626.90      -0.0245782
      78.0000      49558.20      84626.90      -0.1017168
      81.0000      49558.20      84626.90      -0.0983754
      84.0000      51415.30      84626.90      -0.0941612
      87.0000      51567.50      84626.90      -0.0593788
      90.0000      57776.00      84626.90      -0.0683062
      93.0000      63164.70      84626.90      -0.0651148
      96.0000      69434.10      84626.90      0.0362579
      99.0000      52514.80      84626.90      -0.0408692
      102.0000      51586.00      84626.90      -0.0578672
      105.0000      61031.40      84626.90      -0.0559764
      108.0000      54660.30      84626.90      -0.0765280
      111.0000      55537.60      84626.90      -0.1561121
      114.0000      64435.20      84626.90      -0.0966713
      117.0000      54919.60      84626.90      -0.0546706
      120.0000      58491.20      84626.90      -0.0480354
      123.0000      67434.80      84626.90      0.0088812
      126.0000      66855.30      84626.90      -0.0232232
      129.0000      66090.70      84626.90      0.0160324
      132.0000      87338.20      84626.90      0.1451086
      135.0000      78913.00      84626.90      0.1058461
      138.0000      72208.60      84626.90      0.0725655
      141.0000      75441.20      84626.90      0.1039569
      144.0000      79723.80      84626.90      0.1414543
      147.0000      75511.30      84626.90      0.1253791
      150.0000      77294.00      84626.90      0.1311019
      153.0000      77019.80      84626.90      0.1171192
      156.0000      70535.50      84626.90      0.0380050
      159.0000      71530.20      84626.90      0.0528329
      162.0000      81345.00      84626.90      0.0642552
      165.0000      67312.00      84626.90      -0.0245782
      168.0000      67235.40      84626.90      -0.1017168
      171.0000      66788.40      84626.90      -0.0983754
      174.0000      72561.20      84626.90      -0.0941612
      177.0000      71874.30      84626.90      -0.0593788
      180.0000      70534.00      84626.90      -0.0683062
      183.0000      62105.80      84626.90      -0.0651148
      186.0000      86311.80      84626.90      0.0362579
      189.0000      89242.00      84626.90      -0.0408693
      192.0000      83622.90      84626.90      -0.0578672
      195.0000      89235.10      84626.90      -0.0559764
      198.0000      83410.20      84626.90      -0.0765280
      201.0000      77748.70      84626.90      -0.1561121
      204.0000      78474.60      84626.90      -0.0966713
      207.0000      82403.80      84626.90      -0.0546706
      210.0000      91341.20      84626.90      -0.0480354
      213.0000      93105.80      84626.90      0.0088812
      216.0000      94931.40      84626.90      -0.0232232
      219.0000      96382.20      84626.90      0.0160324
      222.0000      110210.10      84626.90      0.1451086
      225.0000      106057.20      84626.90      0.1058461
      228.0000      107009.00      84626.90      0.0725655
      231.0000      116931.30      84626.90      0.1039569
      234.0000      118561.50      84626.90      0.1414543
      237.0000      117420.00      84626.90      0.1253791
      240.0000      124296.30      84626.90      0.1311019
      243.0000      116680.60      84626.90      0.1171192
      246.0000      118153.40      84626.90      0.0380050
      249.0000      127570.00      84626.90      0.0528329
      252.0000      115371.40      84626.90      0.0642551
      255.0000      121098.40      84626.90      -0.0245782
      258.0000      114889.50      84626.90      -0.1017168
      261.0000      109786.60      84626.90      -0.0983754
      264.0000      104463.90      84626.90      -0.0941612
      267.0000      109156.30      84626.90      -0.0593788
      270.0000      112825.00      84626.90      -0.0683062
      273.0000      117166.80      84626.90      -0.0651148
      276.0000      116530.50      84626.90      0.0362579
      279.0000      114297.90      84626.90      -0.0408693
      282.0000      115358.60      84626.90      -0.0578672
      285.0000      103551.00      84626.90      -0.0559764
      288.0000      118320.60      84626.90      -0.0765279
      291.0000      98072.40      84626.90      -0.1561121
      294.0000      99409.00      84626.90      -0.0966713
      297.0000      105423.80      84626.90      -0.0546706
      300.0000      102275.00      84626.90      -0.0480354
      303.0000      97154.70      84626.90      0.0088812
      306.0000      98868.30      84626.90      -0.0232232
      309.0000      98868.30      84626.90      0.0160324
      312.0000      98868.30      84626.90      0.1451086
      315.0000      98868.30      84626.90      0.1058461
      318.0000      98868.30      84626.90      0.0725654
      321.0000      91026.90      84626.90      0.1039569
      324.0000      104760.10      84626.90      0.1414543
      327.0000      97418.10      84626.90      0.1253791
      330.0000      104155.70      84626.90      0.1311019
      333.0000      103707.30      84626.90      0.1171192
      336.0000      92263.40      84626.90      0.0380050
      339.0000      88009.80      84626.90      0.0528329
      342.0000      86422.10      84626.90      0.0642551
      345.0000      83586.30      84626.90      -0.0245782
      348.0000      72444.20      84626.90      -0.1017168
      351.0000      76744.00      84626.90      -0.0983754
      354.0000      72683.10      84626.90      -0.0941612
      357.0000      78944.00      84626.90      -0.0593788
      360.0000      70534.00      84626.90      -0.0683062
       11     121       19.5900     42.0000      1.00000      0.00000
      0.0000      69176.20      78875.90      -0.1264843
      3.0000      76459.60      78875.90      -0.0587787
      6.0000      71492.70      78875.90      -0.0125911
      9.0000      76519.20      78875.90      0.0062645
      12.0000      61284.00      78875.90      -0.1185109
      15.0000      58937.00      78875.90      -0.1249582
      18.0000      61235.60      78875.90      -0.1224392
      21.0000      51835.10      78875.90      -0.1291255
      24.0000      62353.20      78875.90      -0.0398234
      27.0000      56578.30      78875.90      -0.1115771
      30.0000      58551.40      78875.90      -0.0265360
      33.0000      64357.60      78875.90      0.0228477
      36.0000      57136.40      78875.90      0.0002280
      39.0000      64841.10      78875.90      0.0200816
      42.0000      72289.80      78875.90      0.0817876
      45.0000      75766.60      78875.90      0.1999814
      48.0000      80775.90      78875.90      0.2298666
      51.0000      72844.30      78875.90      0.1445418
      54.0000      73792.90      78875.90      0.1855454
      57.0000      78812.70      78875.90      0.2084967
      60.0000      58611.00      78875.90      0.1043362
      63.0000      64345.50      78875.90      0.0915328
      66.0000      52201.20      78875.90      0.0051634
      69.0000      55781.50      78875.90      -0.0094597
      72.0000      47121.50      78875.90      -0.0128891
      75.0000      55141.40      78875.90      -0.0144042
      78.0000      48122.00      78875.90      -0.0447826
      81.0000      47969.80      78875.90      -0.1364058
      84.0000      50558.20      78875.90      -0.0550568
      87.0000      47302.80      78875.90      -0.0549204
      90.0000      44479.00      78875.90      -0.1264843
      93.0000      46189.40      78875.90      -0.0587787
      96.0000      55663.00      78875.90      -0.0125911
      99.0000      54347.40      78875.90      0.0062645
      102.0000      41790.20      78875.90      -0.1185109
      105.0000      45528.10      78875.90      -0.1249582
      108.0000      48191.10      78875.90      -0.1224392
      111.0000      47456.50      78875.90      -0.1291255
      114.0000      51445.90      78875.90      -0.0398234
      117.0000      42378.60      78875.90      -0.1115770
      120.0000      54753.40      78875.90      -0.0265360
      123.0000      55655.70      78875.90      0.0228477
      126.0000      56779.20      78875.90      0.0002280
      129.0000      56779.20      78875.90      0.0200816
      132.0000      62388.80      78875.90      0.0817876
      135.0000      71599.50      78875.90      0.1999814
      138.0000      74514.20      78875.90      0.2298666
      141.0000      62445.00      78875.90      0.1445418
      144.0000      75318.50      78875.90      0.1855454
      147.0000      72193.90      78875.90      0.2084967
      150.0000      67059.10      78875.90      0.1043362
      153.0000      66585.90      78875.90      0.0915328
      156.0000      59907.00      78875.90      0.0051634
      159.0000      58542.90      78875.90      -0.0094597
      162.0000      66816.30      78875.90      -0.0128891
      165.0000      57769.70      78875.90      -0.0144042
      168.0000      62468.90      78875.90      -0.0447825
      171.0000      54187.70      78875.90      -0.1364058
      174.0000      58822.50      78875.90      -0.0550568
      177.0000      69535.60      78875.90      -0.0549204
      180.0000      58404.00      78875.90      -0.1264843
      183.0000      64543.20      78875.90      -0.0587787
      186.0000      71464.30      78875.90      -0.0125911
      189.0000      64084.00      78875.90      0.0062645
      192.0000      65394.50      78875.90      -0.1185109
      195.0000      65214.70      78875.90      -0.1249582
      198.0000      62981.20      78875.90      -0.1224392
      201.0000      74607.30      78875.90      -0.1291255
      204.0000      79117.20      78875.90      -0.0398234
      207.0000      74763.50      78875.90      -0.1115770
      210.0000      85775.10      78875.90      -0.0265360
      213.0000      91247.30      78875.90      0.0228477
      216.0000      92019.90      78875.90      0.0002280
      219.0000      86810.30      78875.90      0.0200816
      222.0000      90428.10      78875.90      0.0817876
      225.0000      99622.70      78875.90      0.1999814
      228.0000      104886.20      78875.90      0.2298666
      231.0000      107012.90      78875.90      0.1445418
      234.0000      100156.70      78875.90      0.1855454
      237.0000      112767.70      78875.90      0.2084967
      240.0000      112668.20      78875.90      0.1043362
      243.0000      100661.70      78875.90      0.0915328
      246.0000      102575.10      78875.90      0.0051634
      249.0000      110765.50      78875.90      -0.0094597
      252.0000      115368.90      78875.90      -0.0128891
      255.0000      114122.80      78875.90      -0.0144042
      258.0000      112550.20      78875.90      -0.0447826
      261.0000      96372.90      78875.90      -0.1364058
      264.0000      114988.90      78875.90      -0.0550568
      267.0000      108271.30      78875.90      -0.0549204
      270.0000      107828.00      78875.90      -0.1264843
      273.0000      114349.70      78875.90      -0.0587787
      276.0000      110177.80      78875.90      -0.0125911
      279.0000      123536.50      78875.90      0.0062645
      282.0000      115876.10      78875.90      -0.1185109
      285.0000      108477.20      78875.90      -0.1249582
      288.0000      102968.20      78875.90      -0.1224392
      291.0000      101310.90      78875.90      -0.1291255
      294.0000      109023.70      78875.90      -0.0398235
      297.0000      111173.00      78875.90      -0.1115770
      300.0000      106163.70      78875.90      -0.0265360
      303.0000      108927.50      78875.90      0.0228477
      306.0000      109071.10      78875.90      0.0002280
      309.0000      109617.20      78875.90      0.0200816
      312.0000      107244.10      78875.90      0.0817876
      315.0000      123461.40      78875.90      0.1999814
      318.0000      115310.20      78875.90      0.2298666
      321.0000      113422.90      78875.90      0.1445418
      324.0000      114026.30      78875.90      0.1855454
      327.0000      105635.40      78875.90      0.2084967
      330.0000      111460.20      78875.90      0.1043362
      333.0000      108023.50      78875.90      0.0915328
      336.0000      105813.30      78875.90      0.0051634
      339.0000      87362.60      78875.90      -0.0094597
      342.0000      87122.70      78875.90      -0.0128891
      345.0000      85105.40      78875.90      -0.0144041
      348.0000      82415.90      78875.90      -0.0447825
      351.0000      73988.90      78875.90      -0.1364058
      354.0000      76992.20      78875.90      -0.0550568
      357.0000      75792.10      78875.90      -0.0549204
      360.0000      58404.00      78875.90      -0.1264843
       12     121       19.5900     45.0000      1.00000      0.00000
      0.0000      70734.60      77479.60      -0.0203252
      3.0000      82307.00      77479.60      0.0458883
      6.0000      79970.30      77479.60      0.0463483
      9.0000      83813.40      77479.60      0.0172911
      12.0000      64766.30      77479.60      0.0041146
      15.0000      69885.90      77479.60      -0.0595564
      18.0000      76830.70      77479.60      -0.0778631
      21.0000      69243.70      77479.60      -0.0087951
      24.0000      71498.30      77479.60      -0.0142912
      27.0000      66875.30      77479.60      -0.0555241
      30.0000      68434.10      77479.60      -0.0283139
      33.0000      49873.50      77479.60      -0.1066621
      36.0000      63489.20      77479.60      -0.0518706
      39.0000      70596.90      77479.60      0.0067642
      42.0000      65037.60      77479.60      0.0065673
      45.0000      71484.00      77479.60      0.0819604
      48.0000      71484.00      77479.60      0.0844582
      51.0000      78749.80      77479.60      0.1331221
      54.0000      69025.20      77479.60      0.0836507
      57.0000      57541.90      77479.60      0.0208055
      60.0000      67156.90      77479.60      0.0896445
      63.0000      66973.20      77479.60      0.0545987
      66.0000      53436.60      77479.60      -0.0927358
      69.0000      47147.30      77479.60      0.0088517
      72.0000      49229.00      77479.60      -0.0896001
      75.0000      57299.20      77479.60      -0.0428918
      78.0000      62240.50      77479.60      0.0347462
      81.0000      56748.00      77479.60      0.0067175
      84.0000      55164.30      77479.60      -0.0056442
      87.0000      56685.20      77479.60      0.0199005
      90.0000      59971.40      77479.60      -0.0203252
      93.0000      62304.80      77479.60      0.0458883
      96.0000      63812.90      77479.60      0.0463483
      99.0000      55857.80      77479.60      0.0172911
      102.0000      59314.40      77479.60      0.0041145
      105.0000      50278.90      77479.60      -0.0595564
      108.0000      49592.40      77479.60      -0.0778631
      111.0000      53832.90      77479.60      -0.0087951
      114.0000      53975.20      77479.60      -0.0142912
      117.0000      54151.20      77479.60      -0.0555241
      120.0000      53661.30      77479.60      -0.0283139
      123.0000      53814.20      77479.60      -0.1066622
      126.0000      51023.10      77479.60      -0.0518706
      129.0000      57396.20      77479.60      0.0067641
      132.0000      56173.50      77479.60      0.0065673
      135.0000      65949.30      77479.60      0.0819604
      138.0000      55197.90      77479.60      0.0844582
      141.0000      59969.90      77479.60      0.1331221
      144.0000      59452.90      77479.60      0.0836507
      147.0000      62412.50      77479.60      0.0208055
      150.0000      60627.30      77479.60      0.0896445
      153.0000      58394.00      77479.60      0.0545987
      156.0000      52967.90      77479.60      -0.0927358
      159.0000      59511.30      77479.60      0.0088517
      162.0000      53009.20      77479.60      -0.0896001
      165.0000      53106.50      77479.60      -0.0428918
      168.0000      61996.60      77479.60      0.0347462
      171.0000      69249.70      77479.60      0.0067175
      174.0000      60920.60      77479.60      -0.0056442
      177.0000      61554.50      77479.60      0.0199005
      180.0000      63710.20      77479.60      -0.0203252
      183.0000      71743.90      77479.60      0.0458883
      186.0000      68327.90      77479.60      0.0463483
      189.0000      73396.40      77479.60      0.0172911
      192.0000      78548.80      77479.60      0.0041146
      195.0000      73043.70      77479.60      -0.0595564
      198.0000      66283.90      77479.60      -0.0778631
      201.0000      79081.40      77479.60      -0.0087951
      204.0000      77413.50      77479.60      -0.0142912
      207.0000      76563.70      77479.60      -0.0555241
      210.0000      81256.90      77479.60      -0.0283139
      213.0000      77789.10      77479.60      -0.1066622
      216.0000      85443.00      77479.60      -0.0518706
      219.0000      83620.10      77479.60      0.0067641
      222.0000      88304.90      77479.60      0.0065673
      225.0000      93564.40      77479.60      0.0819604
      228.0000      95449.50      77479.60      0.0844582
      231.0000      104007.00      77479.60      0.1331221
      234.0000      100710.70      77479.60      0.0836507
      237.0000      104205.50      77479.60      0.0208055
      240.0000      113156.90      77479.60      0.0896445
      243.0000      101492.60      77479.60      0.0545987
      246.0000      93078.20      77479.60      -0.0927358
      249.0000      137914.90      77479.60      0.0088517
      252.0000      103671.40      77479.60      -0.0896001
      255.0000      107891.50      77479.60      -0.0428918
      258.0000      114780.70      77479.60      0.0347462
      261.0000      104629.80      77479.60      0.0067176
      264.0000      116027.00      77479.60      -0.0056442
      267.0000      109288.30      77479.60      0.0199005
      270.0000      116194.30      77479.60      -0.0203252
      273.0000      113705.50      77479.60      0.0458883
      276.0000      117037.90      77479.60      0.0463483
      279.0000      108446.50      77479.60      0.0172911
      282.0000      112672.90      77479.60      0.0041145
      285.0000      103968.00      77479.60      -0.0595564
      288.0000      95739.40      77479.60      -0.0778631
      291.0000      109582.10      77479.60      -0.0087951
      294.0000      104940.60      77479.60      -0.0142912
      297.0000      94583.00      77479.60      -0.0555241
      300.0000      97894.40      77479.60      -0.0283139
      303.0000      97719.70      77479.60      -0.1066621
      306.0000      94354.60      77479.60      -0.0518706
      309.0000      96415.60      77479.60      0.0067642
      312.0000      101426.50      77479.60      0.0065673
      315.0000      97661.10      77479.60      0.0819604
      318.0000      113240.70      77479.60      0.0844582
      321.0000      102216.90      77479.60      0.1331221
      324.0000      102753.00      77479.60      0.0836507
      327.0000      89975.50      77479.60      0.0208055
      330.0000      92550.90      77479.60      0.0896445
      333.0000      93165.50      77479.60      0.0545987
      336.0000      77415.80      77479.60      -0.0927358
      339.0000      74843.80      77479.60      0.0088517
      342.0000      74721.80      77479.60      -0.0896001
      345.0000      72834.40      77479.60      -0.0428918
      348.0000      73537.80      77479.60      0.0347462
      351.0000      72147.60      77479.60      0.0067175
      354.0000      69985.30      77479.60      -0.0056442
      357.0000      78225.40      77479.60      0.0199005
      360.0000      63710.20      77479.60      -0.0203252
       13     121       19.5900     48.0000      1.00000      0.00000
      0.0000      78654.10      74122.40      0.0368147
      3.0000      80738.20      74122.40      0.0769330
      6.0000      80058.30      74122.40      0.1613757
      9.0000      80342.20      74122.40      0.1433122
      12.0000      71015.60      74122.40      0.0744210
      15.0000      71516.80      74122.40      0.0206840
      18.0000      69023.70      74122.40      -0.0131621
      21.0000      74723.20      74122.40      -0.0041180
      24.0000      66961.10      74122.40      -0.0259478
      27.0000      59058.70      74122.40      -0.0578627
      30.0000      55650.70      74122.40      -0.0724118
      33.0000      60746.80      74122.40      -0.0002791
      36.0000      43847.30      74122.40      -0.1206555
      39.0000      56748.20      74122.40      -0.0374016
      42.0000      65335.90      74122.40      -0.0094664
      45.0000      50118.30      74122.40      -0.0306643
      48.0000      55014.60      74122.40      -0.0064397
      51.0000      72896.30      74122.40      0.0586505
      54.0000      50497.20      74122.40      -0.0581362
      57.0000      51442.40      74122.40      -0.0100812
      60.0000      51230.30      74122.40      0.0141530
      63.0000      62502.80      74122.40      0.0362591
      66.0000      50717.60      74122.40      -0.0477001
      69.0000      47630.00      74122.40      -0.0082176
      72.0000      37477.60      74122.40      -0.1179736
      75.0000      47827.70      74122.40      -0.0050935
      78.0000      50292.20      74122.40      0.0320089
      81.0000      49045.20      74122.40      0.0516044
      84.0000      41303.60      74122.40      0.0107663
      87.0000      44506.00      74122.40      -0.0005929
      90.0000      57026.80      74122.40      0.0368147
      93.0000      59533.10      74122.40      0.0769330
      96.0000      71857.20      74122.40      0.1613757
      99.0000      66087.90      74122.40      0.1433122
      102.0000      60166.40      74122.40      0.0744210
      105.0000      58481.30      74122.40      0.0206840
      108.0000      50272.30      74122.40      -0.0131621
      111.0000      49307.00      74122.40      -0.0041180
      114.0000      44996.40      74122.40      -0.0259478
      117.0000      47300.50      74122.40      -0.0578627
      120.0000      43828.90      74122.40      -0.0724118
      123.0000      57979.70      74122.40      -0.0002791
      126.0000      50705.80      74122.40      -0.1206555
      129.0000      52140.30      74122.40      -0.0374016
      132.0000      52741.20      74122.40      -0.0094664
      135.0000      57043.20      74122.40      -0.0306643
      138.0000      59906.70      74122.40      -0.0064397
      141.0000      49007.80      74122.40      0.0586505
      144.0000      51174.60      74122.40      -0.0581362
      147.0000      56340.00      74122.40      -0.0100812
      150.0000      54859.30      74122.40      0.0141530
      153.0000      54428.40      74122.40      0.0362591
      156.0000      53440.30      74122.40      -0.0477001
      159.0000      62929.20      74122.40      -0.0082176
      162.0000      50066.00      74122.40      -0.1179736
      165.0000      57489.10      74122.40      -0.0050935
      168.0000      54588.10      74122.40      0.0320089
      171.0000      59772.10      74122.40      0.0516044
      174.0000      63365.20      74122.40      0.0107663
      177.0000      56129.10      74122.40      -0.0005928
      180.0000      66174.50      74122.40      0.0368147
      183.0000      70557.90      74122.40      0.0769330
      186.0000      70277.00      74122.40      0.1613757
      189.0000      82694.50      74122.40      0.1433122
      192.0000      75300.60      74122.40      0.0744210
      195.0000      66991.00      74122.40      0.0206840
      198.0000      71785.60      74122.40      -0.0131621
      201.0000      68325.80      74122.40      -0.0041180
      204.0000      80422.20      74122.40      -0.0259478
      207.0000      79092.60      74122.40      -0.0578627
      210.0000      88360.80      74122.40      -0.0724118
      213.0000      84229.80      74122.40      -0.0002791
      216.0000      82446.40      74122.40      -0.1206555
      219.0000      84109.50      74122.40      -0.0374016
      222.0000      82235.30      74122.40      -0.0094664
      225.0000      86758.00      74122.40      -0.0306644
      228.0000      94297.80      74122.40      -0.0064397
      231.0000      102480.80      74122.40      0.0586505
      234.0000      91280.80      74122.40      -0.0581362
      237.0000      96021.00      74122.40      -0.0100812
      240.0000      108569.80      74122.40      0.0141530
      243.0000      99798.20      74122.40      0.0362591
      246.0000      95189.00      74122.40      -0.0477001
      249.0000      101401.90      74122.40      -0.0082176
      252.0000      105382.00      74122.40      -0.1179736
      255.0000      108917.00      74122.40      -0.0050935
      258.0000      112031.10      74122.40      0.0320089
      261.0000      116430.20      74122.40      0.0516044
      264.0000      116567.70      74122.40      0.0107663
      267.0000      116361.50      74122.40      -0.0005928
      270.0000      112066.00      74122.40      0.0368147
      273.0000      113209.20      74122.40      0.0769330
      276.0000      120857.80      74122.40      0.1613757
      279.0000      108093.90      74122.40      0.1433122
      282.0000      114036.90      74122.40      0.0744210
      285.0000      105085.80      74122.40      0.0206840
      288.0000      105041.80      74122.40      -0.0131621
      291.0000      105561.80      74122.40      -0.0041180
      294.0000      101077.30      74122.40      -0.0259478
      297.0000      96531.70      74122.40      -0.0578627
      300.0000      91395.50      74122.40      -0.0724118
      303.0000      88756.10      74122.40      -0.0002791
      306.0000      84733.40      74122.40      -0.1206555
      309.0000      90823.70      74122.40      -0.0374016
      312.0000      87108.70      74122.40      -0.0094664
      315.0000      92358.60      74122.40      -0.0306643
      318.0000      79898.10      74122.40      -0.0064397
      321.0000      81491.40      74122.40      0.0586505
      324.0000      85059.00      74122.40      -0.0581362
      327.0000      87665.70      74122.40      -0.0100812
      330.0000      86490.00      74122.40      0.0141530
      333.0000      82018.70      74122.40      0.0362591
      336.0000      78638.40      74122.40      -0.0477001
      339.0000      78694.40      74122.40      -0.0082176
      342.0000      72604.20      74122.40      -0.1179736
      345.0000      78452.40      74122.40      -0.0050935
      348.0000      85680.80      74122.40      0.0320089
      351.0000      83114.90      74122.40      0.0516044
      354.0000      78033.70      74122.40      0.0107662
      357.0000      75735.50      74122.40      -0.0005928
      360.0000      66174.50      74122.40      0.0368147
       14     121       19.5900     51.0000      1.00000      0.00000
      0.0000      69300.80      64575.30      0.0511254
      3.0000      80527.30      64575.30      0.1093719
      6.0000      87957.80      64575.30      0.2519332
      9.0000      83847.90      64575.30      0.2581264
      12.0000      71778.80      64575.30      0.2760127
      15.0000      62715.60      64575.30      0.0218876
      18.0000      61209.80      64575.30      -0.0453484
      21.0000      51939.60      64575.30      -0.0031505
      24.0000      48373.20      64575.30      -0.1260737
      27.0000      45091.10      64575.30      -0.1941386
      30.0000      43799.10      64575.30      -0.1153264
      33.0000      50798.60      64575.30      -0.0082148
      36.0000      54050.90      64575.30      -0.0010572
      39.0000      49219.90      64575.30      -0.0660712
      42.0000      54032.60      64575.30      -0.0218325
      45.0000      48090.20      64575.30      -0.0024799
      48.0000      45812.80      64575.30      -0.0608537
      51.0000      44377.80      64575.30      -0.0378135
      54.0000      41240.50      64575.30      -0.0566725
      57.0000      38714.70      64575.30      -0.0716610
      60.0000      48520.70      64575.30      0.0441711
      63.0000      50440.50      64575.30      0.0026478
      66.0000      44837.00      64575.30      -0.0478207
      69.0000      50676.10      64575.30      0.0066558
      72.0000      42466.50      64575.30      -0.0342579
      75.0000      34379.00      64575.30      -0.0467717
      78.0000      43520.70      64575.30      -0.0149758
      81.0000      43033.20      64575.30      0.0022463
      84.0000      41680.10      64575.30      0.0323415
      87.0000      45369.90      64575.30      0.0263580
      90.0000      54283.60      64575.30      0.0511254
      93.0000      53777.10      64575.30      0.1093719
      96.0000      60865.90      64575.30      0.2519332
      99.0000      62880.90      64575.30      0.2581264
      102.0000      76005.20      64575.30      0.2760127
      105.0000      45456.20      64575.30      0.0218875
      108.0000      38760.10      64575.30      -0.0453484
      111.0000      47865.20      64575.30      -0.0031505
      114.0000      37043.10      64575.30      -0.1260737
      117.0000      27749.00      64575.30      -0.1941386
      120.0000      39741.80      64575.30      -0.1153264
      123.0000      49557.20      64575.30      -0.0082148
      126.0000      45583.40      64575.30      -0.0010572
      129.0000      43551.20      64575.30      -0.0660712
      132.0000      48434.40      64575.30      -0.0218325
      135.0000      46370.90      64575.30      -0.0024799
      138.0000      48660.60      64575.30      -0.0608537
      141.0000      45227.40      64575.30      -0.0378135
      144.0000      43945.50      64575.30      -0.0566725
      147.0000      48368.80      64575.30      -0.0716610
      150.0000      50205.90      64575.30      0.0441711
      153.0000      47237.90      64575.30      0.0026478
      156.0000      43984.50      64575.30      -0.0478207
      159.0000      39509.20      64575.30      0.0066558
      162.0000      45658.50      64575.30      -0.0342579
      165.0000      51098.40      64575.30      -0.0467717
      168.0000      37831.20      64575.30      -0.0149758
      171.0000      52363.80      64575.30      0.0022463
      174.0000      50735.60      64575.30      0.0323415
      177.0000      58959.90      64575.30      0.0263580
      180.0000      56017.30      64575.30      0.0511254
      183.0000      59554.00      64575.30      0.1093719
      186.0000      68900.40      64575.30      0.2519332
      189.0000      70669.60      64575.30      0.2581264
      192.0000      65505.30      64575.30      0.2760127
      195.0000      60880.00      64575.30      0.0218876
      198.0000      60332.60      64575.30      -0.0453484
      201.0000      64579.40      64575.30      -0.0031505
      204.0000      58972.60      64575.30      -0.1260737
      207.0000      65001.10      64575.30      -0.1941386
      210.0000      64711.40      64575.30      -0.1153264
      213.0000      66993.80      64575.30      -0.0082148
      216.0000      71333.20      64575.30      -0.0010572
      219.0000      66386.40      64575.30      -0.0660712
      222.0000      75008.50      64575.30      -0.0218325
      225.0000      82007.30      64575.30      -0.0024799
      228.0000      73270.30      64575.30      -0.0608537
      231.0000      80641.10      64575.30      -0.0378135
      234.0000      81891.00      64575.30      -0.0566725
      237.0000      86190.90      64575.30      -0.0716610
      240.0000      90958.10      64575.30      0.0441711
      243.0000      86645.80      64575.30      0.0026478
      246.0000      87707.90      64575.30      -0.0478207
      249.0000      93186.70      64575.30      0.0066558
      252.0000      90643.50      64575.30      -0.0342579
      255.0000      91749.20      64575.30      -0.0467717
      258.0000      96876.40      64575.30      -0.0149758
      261.0000      96776.20      64575.30      0.0022463
      264.0000      93801.20      64575.30      0.0323415
      267.0000      83043.50      64575.30      0.0263580
      270.0000      95303.20      64575.30      0.0511254
      273.0000      98164.80      64575.30      0.1093719
      276.0000      109826.50      64575.30      0.2519332
      279.0000      108706.70      64575.30      0.2581264
      282.0000      107344.40      64575.30      0.2760127
      285.0000      100767.70      64575.30      0.0218875
      288.0000      93133.20      64575.30      -0.0453484
      291.0000      95437.00      64575.30      -0.0031505
      294.0000      86453.10      64575.30      -0.1260737
      297.0000      78602.90      64575.30      -0.1941386
      300.0000      83569.70      64575.30      -0.1153264
      303.0000      87134.70      64575.30      -0.0082148
      306.0000      86455.00      64575.30      -0.0010572
      309.0000      80799.30      64575.30      -0.0660712
      312.0000      68511.00      64575.30      -0.0218325
      315.0000      80686.80      64575.30      -0.0024799
      318.0000      69943.20      64575.30      -0.0608537
      321.0000      77740.80      64575.30      -0.0378135
      324.0000      77453.50      64575.30      -0.0566725
      327.0000      65535.40      64575.30      -0.0716610
      330.0000      76508.30      64575.30      0.0441711
      333.0000      67934.40      64575.30      0.0026478
      336.0000      65532.50      64575.30      -0.0478207
      339.0000      71634.50      64575.30      0.0066558
      342.0000      67197.00      64575.30      -0.0342579
      345.0000      68962.20      64575.30      -0.0467718
      348.0000      72834.50      64575.30      -0.0149758
      351.0000      60576.10      64575.30      0.0022462
      354.0000      72994.20      64575.30      0.0323415
      357.0000      63542.70      64575.30      0.0263580
      360.0000      56017.30      64575.30      0.0511254
       15     121       19.5900     54.0000      1.00000      0.00000
      0.0000      68947.10      57938.10      0.0824858
      3.0000      80585.50      57938.10      0.1844151
      6.0000      82409.80      57938.10      0.2244635
      9.0000      70730.10      57938.10      0.1924336
      12.0000      67775.60      57938.10      0.1900888
      15.0000      56111.60      57938.10      0.0436270
      18.0000      51781.50      57938.10      -0.0299144
      21.0000      53015.00      57938.10      0.0495524
      24.0000      48898.40      57938.10      -0.0362366
      27.0000      41919.20      57938.10      -0.1225678
      30.0000      38008.90      57938.10      -0.0685493
      33.0000      47669.80      57938.10      -0.0566558
      36.0000      40644.10      57938.10      -0.0613527
      39.0000      35745.00      57938.10      -0.1147772
      42.0000      43556.60      57938.10      -0.0264628
      45.0000      44675.20      57938.10      0.0013698
      48.0000      41266.50      57938.10      0.0056974
      51.0000      40736.60      57938.10      0.0450143
      54.0000      38290.30      57938.10      -0.0894322
      57.0000      45033.50      57938.10      0.0890858
      60.0000      27421.80      57938.10      -0.0998296
      63.0000      41846.90      57938.10      -0.0367307
      66.0000      39017.00      57938.10      0.0140861
      69.0000      34803.20      57938.10      0.0089321
      72.0000      29636.80      57938.10      -0.0691658
      75.0000      39121.50      57938.10      -0.0337641
      78.0000      39737.80      57938.10      -0.0089678
      81.0000      29344.60      57938.10      0.0192127
      84.0000      5247.10      57938.10      -0.1644131
      87.0000      36097.40      57938.10      0.0339629
      90.0000      46267.80      57938.10      0.0824858
      93.0000      44722.30      57938.10      0.1844151
      96.0000      46803.10      57938.10      0.2244635
      99.0000      47235.30      57938.10      0.1924336
      102.0000      47903.20      57938.10      0.1900888
      105.0000      43594.20      57938.10      0.0436270
      108.0000      34676.20      57938.10      -0.0299144
      111.0000      39183.50      57938.10      0.0495524
      114.0000      39183.50      57938.10      -0.0362366
      117.0000      35012.30      57938.10      -0.1225678
      120.0000      38720.30      57938.10      -0.0685492
      123.0000      38255.90      57938.10      -0.0566558
      126.0000      35490.50      57938.10      -0.0613527
      129.0000      33977.50      57938.10      -0.1147773
      132.0000      43470.20      57938.10      -0.0264628
      135.0000      42007.40      57938.10      0.0013698
      138.0000      44483.50      57938.10      0.0056974
      141.0000      48820.10      57938.10      0.0450143
      144.0000      34226.90      57938.10      -0.0894322
      147.0000      49813.50      57938.10      0.0890858
      150.0000      36149.70      57938.10      -0.0998296
      153.0000      40643.20      57938.10      -0.0367307
      156.0000      42484.50      57938.10      0.0140861
      159.0000      45507.40      57938.10      0.0089321
      162.0000      47280.20      57938.10      -0.0691658
      165.0000      38651.90      57938.10      -0.0337641
      168.0000      38541.00      57938.10      -0.0089678
      171.0000      44551.50      57938.10      0.0192127
      174.0000      48358.10      57938.10      -0.1644131
      177.0000      48026.50      57938.10      0.0339629
      180.0000      47322.90      57938.10      0.0824858
      183.0000      62533.00      57938.10      0.1844151
      186.0000      63222.90      57938.10      0.2244635
      189.0000      60670.30      57938.10      0.1924336
      192.0000      63667.90      57938.10      0.1900888
      195.0000      54012.30      57938.10      0.0436270
      198.0000      59329.10      57938.10      -0.0299144
      201.0000      73478.70      57938.10      0.0495524
      204.0000      59380.30      57938.10      -0.0362366
      207.0000      53938.60      57938.10      -0.1225678
      210.0000      60730.50      57938.10      -0.0685492
      213.0000      62693.20      57938.10      -0.0566558
      216.0000      72631.40      57938.10      -0.0613527
      219.0000      66564.80      57938.10      -0.1147772
      222.0000      75127.40      57938.10      -0.0264628
      225.0000      75127.40      57938.10      0.0013698
      228.0000      75127.40      57938.10      0.0056974
      231.0000      80484.00      57938.10      0.0450143
      234.0000      70869.40      57938.10      -0.0894322
      237.0000      79089.20      57938.10      0.0890858
      240.0000      83896.20      57938.10      -0.0998296
      243.0000      66572.40      57938.10      -0.0367307
      246.0000      85416.00      57938.10      0.0140861
      249.0000      89429.10      57938.10      0.0089321
      252.0000      83918.10      57938.10      -0.0691658
      255.0000      82448.60      57938.10      -0.0337641
      258.0000      87126.00      57938.10      -0.0089678
      261.0000      93833.10      57938.10      0.0192127
      264.0000      86727.70      57938.10      -0.1644131
      267.0000      91112.10      57938.10      0.0339629
      270.0000      97101.80      57938.10      0.0824858
      273.0000      98694.00      57938.10      0.1844151
      276.0000      101848.60      57938.10      0.2244635
      279.0000      106204.60      57938.10      0.1924336
      282.0000      102186.40      57938.10      0.1900888
      285.0000      91453.10      57938.10      0.0436270
      288.0000      87225.50      57938.10      -0.0299144
      291.0000      82124.70      57938.10      0.0495524
      294.0000      76767.40      57938.10      -0.0362366
      297.0000      74779.60      57938.10      -0.1225678
      300.0000      81490.00      57938.10      -0.0685493
      303.0000      67524.60      57938.10      -0.0566558
      306.0000      71716.90      57938.10      -0.0613527
      309.0000      72369.20      57938.10      -0.1147772
      312.0000      57345.60      57938.10      -0.0264628
      315.0000      65606.50      57938.10      0.0013698
      318.0000      67573.60      57938.10      0.0056974
      321.0000      66412.30      57938.10      0.0450143
      324.0000      64647.90      57938.10      -0.0894322
      327.0000      68191.30      57938.10      0.0890858
      330.0000      65079.20      57938.10      -0.0998296
      333.0000      61419.50      57938.10      -0.0367307
      336.0000      60391.00      57938.10      0.0140861
      339.0000      58327.30      57938.10      0.0089321
      342.0000      49602.90      57938.10      -0.0691658
      345.0000      50559.40      57938.10      -0.0337641
      348.0000      50050.10      57938.10      -0.0089678
      351.0000      60031.80      57938.10      0.0192127
      354.0000      58758.70      57938.10      -0.1644131
      357.0000      46495.70      57938.10      0.0339629
      360.0000      47322.90      57938.10      0.0824858
       16     121       19.5900     57.0000      1.00000      0.00000
      0.0000      55776.40      48886.60      0.0570887
      3.0000      56295.30      48886.60      -0.0239137
      6.0000      60531.60      48886.60      0.0612261
      9.0000      60531.60      48886.60      0.1337038
      12.0000      50334.60      48886.60      0.0829034
      15.0000      48741.50      48886.60      -0.0557902
      18.0000      50132.70      48886.60      0.0517573
      21.0000      41614.80      48886.60      0.0265212
      24.0000      40577.90      48886.60      -0.1087399
      27.0000      38699.70      48886.60      -0.1225389
      30.0000      37704.80      48886.60      -0.0744283
      33.0000      40342.80      48886.60      -0.0122811
      36.0000      32347.80      48886.60      -0.1111920
      39.0000      35862.20      48886.60      -0.0936336
      42.0000      38469.80      48886.60      -0.0184024
      45.0000      38629.30      48886.60      -0.0264948
      48.0000      45495.30      48886.60      0.0881322
      51.0000      41955.20      48886.60      0.0594154
      54.0000      40671.80      48886.60      0.0985189
      57.0000      36708.50      48886.60      0.0528693
      60.0000      38847.20      48886.60      -0.0333431
      63.0000      39613.90      48886.60      -0.0420610
      66.0000      31948.00      48886.60      0.0376938
      69.0000      29725.90      48886.60      -0.0389214
      72.0000      33237.30      48886.60      -0.0882838
      75.0000      34395.90      48886.60      -0.0055488
      78.0000      34175.70      48886.60      0.0207368
      81.0000      29045.80      48886.60      -0.0184801
      84.0000      33957.80      48886.60      0.0430927
      87.0000      36552.50      48886.60      0.1222969
      90.0000      38415.90      48886.60      0.0570887
      93.0000      31138.50      48886.60      -0.0239137
      96.0000      39040.90      48886.60      0.0612261
      99.0000      43244.20      48886.60      0.1337038
      102.0000      40732.70      48886.60      0.0829034
      105.0000      28131.20      48886.60      -0.0557902
      108.0000      39308.00      48886.60      0.0517573
      111.0000      38603.60      48886.60      0.0265212
      114.0000      27674.30      48886.60      -0.1087399
      117.0000      34008.90      48886.60      -0.1225389
      120.0000      36109.50      48886.60      -0.0744283
      123.0000      39103.20      48886.60      -0.0122811
      126.0000      32135.40      48886.60      -0.1111920
      129.0000      35329.90      48886.60      -0.0936336
      132.0000      39170.60      48886.60      -0.0184024
      135.0000      38599.60      48886.60      -0.0264949
      138.0000      41094.40      48886.60      0.0881322
      141.0000      40691.70      48886.60      0.0594154
      144.0000      39593.70      48886.60      0.0985189
      147.0000      42061.90      48886.60      0.0528693
      150.0000      35447.30      48886.60      -0.0333431
      153.0000      31474.60      48886.60      -0.0420610
      156.0000      50411.20      48886.60      0.0376938
      159.0000      40097.40      48886.60      -0.0389214
      162.0000      32860.10      48886.60      -0.0882838
      165.0000      38029.20      48886.60      -0.0055488
      168.0000      38046.40      48886.60      0.0207368
      171.0000      36597.50      48886.60      -0.0184801
      174.0000      40217.00      48886.60      0.0430927
      177.0000      43005.50      48886.60      0.1222969
      180.0000      42568.50      48886.60      0.0570887
      183.0000      44105.30      48886.60      -0.0239137
      186.0000      41428.80      48886.60      0.0612261
      189.0000      45863.70      48886.60      0.1337038
      192.0000      51151.20      48886.60      0.0829034
      195.0000      45092.30      48886.60      -0.0557902
      198.0000      48534.30      48886.60      0.0517573
      201.0000      47195.70      48886.60      0.0265212
      204.0000      44885.30      48886.60      -0.1087399
      207.0000      43686.80      48886.60      -0.1225389
      210.0000      48431.90      48886.60      -0.0744283
      213.0000      50180.70      48886.60      -0.0122811
      216.0000      50135.20      48886.60      -0.1111920
      219.0000      44364.00      48886.60      -0.0936336
      222.0000      56526.60      48886.60      -0.0184024
      225.0000      56654.20      48886.60      -0.0264949
      228.0000      61021.90      48886.60      0.0881322
      231.0000      63517.30      48886.60      0.0594154
      234.0000      66100.00      48886.60      0.0985190
      237.0000      67775.90      48886.60      0.0528693
      240.0000      60349.00      48886.60      -0.0333431
      243.0000      63074.10      48886.60      -0.0420610
      246.0000      67466.50      48886.60      0.0376938
      249.0000      68467.40      48886.60      -0.0389214
      252.0000      63554.10      48886.60      -0.0882838
      255.0000      68387.30      48886.60      -0.0055488
      258.0000      71816.90      48886.60      0.0207368
      261.0000      70077.80      48886.60      -0.0184801
      264.0000      71050.50      48886.60      0.0430927
      267.0000      76531.10      48886.60      0.1222969
      270.0000      76415.50      48886.60      0.0570887
      273.0000      66481.00      48886.60      -0.0239137
      276.0000      70444.10      48886.60      0.0612261
      279.0000      73873.70      48886.60      0.1337038
      282.0000      70534.10      48886.60      0.0829034
      285.0000      68679.60      48886.60      -0.0557902
      288.0000      67708.60      48886.60      0.0517573
      291.0000      75241.70      48886.60      0.0265212
      294.0000      65145.50      48886.60      -0.1087399
      297.0000      53191.80      48886.60      -0.1225389
      300.0000      57106.40      48886.60      -0.0744283
      303.0000      61208.10      48886.60      -0.0122811
      306.0000      60725.10      48886.60      -0.1111921
      309.0000      60256.50      48886.60      -0.0936336
      312.0000      54536.50      48886.60      -0.0184024
      315.0000      52892.70      48886.60      -0.0264948
      318.0000      60871.50      48886.60      0.0881322
      321.0000      57361.70      48886.60      0.0594154
      324.0000      67745.60      48886.60      0.0985189
      327.0000      57678.70      48886.60      0.0528693
      330.0000      50622.50      48886.60      -0.0333431
      333.0000      50039.90      48886.60      -0.0420610
      336.0000      50284.60      48886.60      0.0376938
      339.0000      49844.00      48886.60      -0.0389214
      342.0000      46707.40      48886.60      -0.0882838
      345.0000      51607.30      48886.60      -0.0055488
      348.0000      54131.60      48886.60      0.0207368
      351.0000      56625.40      48886.60      -0.0184801
      354.0000      55814.50      48886.60      0.0430927
      357.0000      59319.80      48886.60      0.1222969
      360.0000      42568.50      48886.60      0.0570887
       17     121       19.5900     60.0000      1.00000      0.00000
      0.0000      50029.00      45451.10      -0.0706227
      3.0000      50433.20      45451.10      0.0021648
      6.0000      44552.60      45451.10      0.0122237
      9.0000      38709.10      45451.10      0.0003622
      12.0000      38301.50      45451.10      -0.0285460
      15.0000      39001.40      45451.10      0.0058174
      18.0000      44581.70      45451.10      -0.0085578
      21.0000      41759.10      45451.10      0.1294048
      24.0000      37276.80      45451.10      -0.0718603
      27.0000      42586.50      45451.10      -0.0695021
      30.0000      36267.00      45451.10      -0.0804957
      33.0000      32548.20      45451.10      -0.0288312
      36.0000      30726.60      45451.10      -0.1160887
      39.0000      30320.10      45451.10      -0.1086299
      42.0000      41314.90      45451.10      0.0143816
      45.0000      33879.70      45451.10      0.0398691
      48.0000      37537.40      45451.10      0.0662631
      51.0000      38944.80      45451.10      0.0847185
      54.0000      40505.80      45451.10      0.0993292
      57.0000      41186.50      45451.10      0.0988887
      60.0000      40754.60      45451.10      0.1242908
      63.0000      35347.20      45451.10      -0.1014736
      66.0000      29272.80      45451.10      -0.1209824
      69.0000      31083.70      45451.10      -0.0158210
      72.0000      34032.30      45451.10      0.0281102
      75.0000      29755.40      45451.10      0.0074671
      78.0000      29755.40      45451.10      0.0089053
      81.0000      33801.40      45451.10      0.0726652
      84.0000      37094.40      45451.10      0.1487317
      87.0000      27348.70      45451.10      0.0258508
      90.0000      28005.70      45451.10      -0.0706227
      93.0000      33324.20      45451.10      0.0021648
      96.0000      33470.00      45451.10      0.0122237
      99.0000      32845.60      45451.10      0.0003622
      102.0000      29628.80      45451.10      -0.0285460
      105.0000      36000.80      45451.10      0.0058174
      108.0000      33350.50      45451.10      -0.0085578
      111.0000      38488.50      45451.10      0.1294048
      114.0000      30691.20      45451.10      -0.0718603
      117.0000      27574.20      45451.10      -0.0695021
      120.0000      29365.70      45451.10      -0.0804957
      123.0000      34419.30      45451.10      -0.0288312
      126.0000      27395.40      45451.10      -0.1160887
      129.0000      29282.40      45451.10      -0.1086299
      132.0000      29532.50      45451.10      0.0143816
      135.0000      39086.30      45451.10      0.0398691
      138.0000      38429.40      45451.10      0.0662631
      141.0000      38855.40      45451.10      0.0847185
      144.0000      33616.60      45451.10      0.0993292
      147.0000      32595.60      45451.10      0.0988887
      150.0000      41740.20      45451.10      0.1242908
      153.0000      23095.90      45451.10      -0.1014736
      156.0000      24902.00      45451.10      -0.1209824
      159.0000      37475.80      45451.10      -0.0158210
      162.0000      37475.80      45451.10      0.0281102
      165.0000      38647.80      45451.10      0.0074671
      168.0000      33281.30      45451.10      0.0089053
      171.0000      37934.20      45451.10      0.0726652
      174.0000      39254.50      45451.10      0.1487317
      177.0000      38668.30      45451.10      0.0258508
      180.0000      35630.30      45451.10      -0.0706227
      183.0000      32038.20      45451.10      0.0021648
      186.0000      35516.90      45451.10      0.0122237
      189.0000      40663.60      45451.10      0.0003622
      192.0000      43901.60      45451.10      -0.0285460
      195.0000      42530.20      45451.10      0.0058174
      198.0000      39017.70      45451.10      -0.0085578
      201.0000      60460.90      45451.10      0.1294048
      204.0000      35850.30      45451.10      -0.0718603
      207.0000      42639.10      45451.10      -0.0695021
      210.0000      44508.40      45451.10      -0.0804958
      213.0000      55294.40      45451.10      -0.0288312
      216.0000      49448.20      45451.10      -0.1160887
      219.0000      49913.10      45451.10      -0.1086299
      222.0000      57490.10      45451.10      0.0143816
      225.0000      57663.60      45451.10      0.0398691
      228.0000      61127.70      45451.10      0.0662631
      231.0000      60907.40      45451.10      0.0847185
      234.0000      67287.80      45451.10      0.0993292
      237.0000      68309.20      45451.10      0.0988887
      240.0000      69055.70      45451.10      0.1242908
      243.0000      56755.60      45451.10      -0.1014736
      246.0000      63156.70      45451.10      -0.1209824
      249.0000      67565.10      45451.10      -0.0158210
      252.0000      66545.30      45451.10      0.0281102
      255.0000      63953.20      45451.10      0.0074671
      258.0000      71866.40      45451.10      0.0089053
      261.0000      74589.70      45451.10      0.0726652
      264.0000      73488.70      45451.10      0.1487317
      267.0000      71799.30      45451.10      0.0258508
      270.0000      62909.20      45451.10      -0.0706227
      273.0000      72781.60      45451.10      0.0021648
      276.0000      76618.80      45451.10      0.0122237
      279.0000      75082.90      45451.10      0.0003622
      282.0000      70704.60      45451.10      -0.0285460
      285.0000      66056.50      45451.10      0.0058174
      288.0000      63950.70      45451.10      -0.0085578
      291.0000      64706.50      45451.10      0.1294048
      294.0000      66903.30      45451.10      -0.0718603
      297.0000      56654.60      45451.10      -0.0695021
      300.0000      57535.80      45451.10      -0.0804958
      303.0000      53785.50      45451.10      -0.0288312
      306.0000      55192.30      45451.10      -0.1160887
      309.0000      53315.90      45451.10      -0.1086299
      312.0000      54353.00      45451.10      0.0143816
      315.0000      56051.40      45451.10      0.0398691
      318.0000      52927.30      45451.10      0.0662631
      321.0000      53678.00      45451.10      0.0847185
      324.0000      55544.90      45451.10      0.0993292
      327.0000      54035.80      45451.10      0.0988887
      330.0000      45753.50      45451.10      0.1242908
      333.0000      43937.00      45451.10      -0.1014736
      336.0000      41904.60      45451.10      -0.1209824
      339.0000      39703.40      45451.10      -0.0158210
      342.0000      43624.80      45451.10      0.0281102
      345.0000      46779.10      45451.10      0.0074671
      348.0000      46198.70      45451.10      0.0089053
      351.0000      43443.80      45451.10      0.0726652
      354.0000      49754.10      45451.10      0.1487317
      357.0000      44127.10      45451.10      0.0258508
      360.0000      35630.30      45451.10      -0.0706227
       18     121       19.5900     63.0000      1.00000      0.00000
      0.0000      41313.60      40447.50      -0.0955289
      3.0000      38915.30      40447.50      -0.1704285
      6.0000      40624.80      40447.50      -0.0424238
      9.0000      37887.80      40447.50      0.0370326
      12.0000      33517.90      40447.50      -0.0682148
      15.0000      36122.20      40447.50      -0.1045069
      18.0000      37463.80      40447.50      -0.1239336
      21.0000      35080.20      40447.50      -0.0562077
      24.0000      36569.30      40447.50      -0.0014753
      27.0000      38334.70      40447.50      0.0246337
      30.0000      37314.80      40447.50      0.0318016
      33.0000      38694.90      40447.50      0.0014488
      36.0000      34885.70      40447.50      0.0539510
      39.0000      30254.40      40447.50      -0.0453978
      42.0000      31256.60      40447.50      -0.0881375
      45.0000      34838.90      40447.50      0.0058855
      48.0000      34344.20      40447.50      0.1822992
      51.0000      56276.50      40447.50      0.2571494
      54.0000      35274.30      40447.50      0.0961658
      57.0000      30839.40      40447.50      0.0828228
      60.0000      28548.80      40447.50      -0.0095150
      63.0000      28657.60      40447.50      -0.0294802
      66.0000      31527.30      40447.50      0.0140063
      69.0000      30785.60      40447.50      0.0162732
      72.0000      32124.20      40447.50      0.1039538
      75.0000      27072.40      40447.50      0.0331529
      78.0000      26721.00      40447.50      0.0174420
      81.0000      24775.90      40447.50      0.0200606
      84.0000      28854.00      40447.50      0.0166389
      87.0000      26000.50      40447.50      -0.0064600
      90.0000      23390.20      40447.50      -0.0955289
      93.0000      14234.60      40447.50      -0.1704285
      96.0000      25882.00      40447.50      -0.0424238
      99.0000      34203.80      40447.50      0.0370326
      102.0000      22978.20      40447.50      -0.0682148
      105.0000      22912.20      40447.50      -0.1045069
      108.0000      20553.90      40447.50      -0.1239335
      111.0000      22164.90      40447.50      -0.0562077
      114.0000      27600.70      40447.50      -0.0014753
      117.0000      27874.20      40447.50      0.0246337
      120.0000      29686.50      40447.50      0.0318016
      123.0000      28527.40      40447.50      0.0014488
      126.0000      31907.20      40447.50      0.0539510
      129.0000      25881.60      40447.50      -0.0453977
      132.0000      23052.00      40447.50      -0.0881375
      135.0000      27768.80      40447.50      0.0058855
      138.0000      32771.20      40447.50      0.1822992
      141.0000      30127.00      40447.50      0.2571494
      144.0000      32230.30      40447.50      0.0961658
      147.0000      29172.00      40447.50      0.0828228
      150.0000      30880.70      40447.50      -0.0095150
      153.0000      26394.90      40447.50      -0.0294802
      156.0000      27900.20      40447.50      0.0140062
      159.0000      30138.30      40447.50      0.0162732
      162.0000      35678.50      40447.50      0.1039538
      165.0000      32807.70      40447.50      0.0331529
      168.0000      30501.80      40447.50      0.0174421
      171.0000      32619.90      40447.50      0.0200606
      174.0000      28915.70      40447.50      0.0166389
      177.0000      33071.90      40447.50      -0.0064600
      180.0000      29302.40      40447.50      -0.0955289
      183.0000      29493.10      40447.50      -0.1704285
      186.0000      31270.40      40447.50      -0.0424238
      189.0000      31112.50      40447.50      0.0370326
      192.0000      35206.90      40447.50      -0.0682148
      195.0000      30259.60      40447.50      -0.1045069
      198.0000      32495.70      40447.50      -0.1239336
      201.0000      37735.30      40447.50      -0.0562077
      204.0000      40261.90      40447.50      -0.0014753
      207.0000      39069.30      40447.50      0.0246337
      210.0000      42777.40      40447.50      0.0318016
      213.0000      40074.70      40447.50      0.0014488
      216.0000      45061.80      40447.50      0.0539510
      219.0000      49187.00      40447.50      -0.0453978
      222.0000      42649.50      40447.50      -0.0881375
      225.0000      50120.20      40447.50      0.0058855
      228.0000      48177.20      40447.50      0.1822992
      231.0000      52217.00      40447.50      0.2571494
      234.0000      52960.40      40447.50      0.0961658
      237.0000      66161.70      40447.50      0.0828228
      240.0000      55294.00      40447.50      -0.0095150
      243.0000      58198.00      40447.50      -0.0294802
      246.0000      58895.90      40447.50      0.0140063
      249.0000      55477.10      40447.50      0.0162732
      252.0000      56256.30      40447.50      0.1039538
      255.0000      64869.50      40447.50      0.0331529
      258.0000      65774.80      40447.50      0.0174420
      261.0000      60442.20      40447.50      0.0200606
      264.0000      64604.80      40447.50      0.0166389
      267.0000      63810.20      40447.50      -0.0064600
      270.0000      59532.20      40447.50      -0.0955289
      273.0000      65890.40      40447.50      -0.1704285
      276.0000      62162.50      40447.50      -0.0424238
      279.0000      63643.60      40447.50      0.0370326
      282.0000      65570.10      40447.50      -0.0682148
      285.0000      60119.90      40447.50      -0.1045069
      288.0000      55552.70      40447.50      -0.1239336
      291.0000      63133.10      40447.50      -0.0562077
      294.0000      57366.00      40447.50      -0.0014753
      297.0000      60754.00      40447.50      0.0246337
      300.0000      54932.20      40447.50      0.0318016
      303.0000      50932.90      40447.50      0.0014487
      306.0000      55556.30      40447.50      0.0539510
      309.0000      48736.70      40447.50      -0.0453978
      312.0000      50020.90      40447.50      -0.0881375
      315.0000      46085.70      40447.50      0.0058855
      318.0000      76706.70      40447.50      0.1822992
      321.0000      51097.10      40447.50      0.2571494
      324.0000      51578.20      40447.50      0.0961658
      327.0000      48751.90      40447.50      0.0828228
      330.0000      41934.70      40447.50      -0.0095150
      333.0000      41621.00      40447.50      -0.0294802
      336.0000      41249.40      40447.50      0.0140063
      339.0000      42393.80      40447.50      0.0162732
      342.0000      47365.50      40447.50      0.1039538
      345.0000      40005.70      40447.50      0.0331529
      348.0000      39566.00      40447.50      0.0174420
      351.0000      44424.40      40447.50      0.0200606
      354.0000      37232.40      40447.50      0.0166389
      357.0000      33857.30      40447.50      -0.0064600
      360.0000      29302.40      40447.50      -0.0955289
       19     121       19.5900     66.0000      1.00000      0.00000
      0.0000      28025.00      33970.30      -0.1388728
      3.0000      34826.30      33970.30      -0.0757242
      6.0000      37964.00      33970.30      0.0433274
      9.0000      38594.20      33970.30      0.0373867
      12.0000      29153.20      33970.30      -0.0755149
      15.0000      22826.10      33970.30      -0.0685322
      18.0000      30016.50      33970.30      -0.0997141
      21.0000      29876.30      33970.30      -0.0391122
      24.0000      31543.80      33970.30      0.0261057
      27.0000      33843.90      33970.30      0.0075568
      30.0000      35044.20      33970.30      0.1136990
      33.0000      36830.90      33970.30      0.1418228
      36.0000      33757.30      33970.30      0.1482108
      39.0000      26109.60      33970.30      -0.0197519
      42.0000      25971.30      33970.30      -0.1005822
      45.0000      29223.50      33970.30      -0.0660371
      48.0000      28376.60      33970.30      -0.0155478
      51.0000      30257.10      33970.30      0.1074449
      54.0000      27405.20      33970.30      0.0865032
      57.0000      31100.50      33970.30      0.0081944
      60.0000      20997.70      33970.30      -0.0931563
      63.0000      23452.00      33970.30      -0.0401157
      66.0000      31190.60      33970.30      0.0371572
      69.0000      26621.30      33970.30      0.0960535
      72.0000      29760.60      33970.30      0.1723787
      75.0000      24562.00      33970.30      0.1044661
      78.0000      21689.80      33970.30      0.0404414
      81.0000      25653.50      33970.30      0.0363538
      84.0000      17653.60      33970.30      -0.1556850
      87.0000      21680.80      33970.30      -0.0807715
      90.0000      20140.50      33970.30      -0.1388728
      93.0000      20396.80      33970.30      -0.0757242
      96.0000      25544.00      33970.30      0.0433273
      99.0000      24820.00      33970.30      0.0373868
      102.0000      21564.80      33970.30      -0.0755149
      105.0000      28955.20      33970.30      -0.0685322
      108.0000      17200.00      33970.30      -0.0997142
      111.0000      21772.70      33970.30      -0.0391122
      114.0000      22477.80      33970.30      0.0261057
      117.0000      21859.60      33970.30      0.0075568
      120.0000      29068.20      33970.30      0.1136990
      123.0000      27201.70      33970.30      0.1418228
      126.0000      32035.50      33970.30      0.1482108
      129.0000      24267.10      33970.30      -0.0197519
      132.0000      22263.10      33970.30      -0.1005822
      135.0000      20582.90      33970.30      -0.0660371
      138.0000      21724.70      33970.30      -0.0155478
      141.0000      24126.30      33970.30      0.1074449
      144.0000      29039.50      33970.30      0.0865032
      147.0000      23072.50      33970.30      0.0081944
      150.0000      24503.00      33970.30      -0.0931562
      153.0000      23246.10      33970.30      -0.0401157
      156.0000      22746.70      33970.30      0.0371572
      159.0000      29174.20      33970.30      0.0960535
      162.0000      30789.40      33970.30      0.1723786
      165.0000      30783.90      33970.30      0.1044661
      168.0000      24949.80      33970.30      0.0404414
      171.0000      23234.20      33970.30      0.0363538
      174.0000      19653.30      33970.30      -0.1556850
      177.0000      17891.60      33970.30      -0.0807715
      180.0000      24017.10      33970.30      -0.1388727
      183.0000      24072.30      33970.30      -0.0757242
      186.0000      26336.60      33970.30      0.0433273
      189.0000      28197.10      33970.30      0.0373867
      192.0000      28237.70      33970.30      -0.0755149
      195.0000      25663.60      33970.30      -0.0685322
      198.0000      33231.90      33970.30      -0.0997142
      201.0000      34206.80      33970.30      -0.0391122
      204.0000      35926.40      33970.30      0.0261057
      207.0000      32857.70      33970.30      0.0075568
      210.0000      34702.10      33970.30      0.1136990
      213.0000      38395.10      33970.30      0.1418228
      216.0000      37101.80      33970.30      0.1482108
      219.0000      35140.90      33970.30      -0.0197519
      222.0000      32870.20      33970.30      -0.1005822
      225.0000      35964.80      33970.30      -0.0660371
      228.0000      38981.50      33970.30      -0.0155478
      231.0000      56882.60      33970.30      0.1074449
      234.0000      47416.50      33970.30      0.0865032
      237.0000      39217.00      33970.30      0.0081944
      240.0000      40994.70      33970.30      -0.0931562
      243.0000      41300.60      33970.30      -0.0401157
      246.0000      46803.10      33970.30      0.0371572
      249.0000      55945.30      33970.30      0.0960535
      252.0000      55784.10      33970.30      0.1723786
      255.0000      54710.50      33970.30      0.1044661
      258.0000      51647.50      33970.30      0.0404414
      261.0000      54779.00      33970.30      0.0363538
      264.0000      50946.80      33970.30      -0.1556850
      267.0000      53802.70      33970.30      -0.0807715
      270.0000      49615.10      33970.30      -0.1388728
      273.0000      52479.10      33970.30      -0.0757242
      276.0000      55728.70      33970.30      0.0433274
      279.0000      52185.20      33970.30      0.0373867
      282.0000      49658.50      33970.30      -0.0755149
      285.0000      46443.90      33970.30      -0.0685322
      288.0000      46073.10      33970.30      -0.0997142
      291.0000      46138.70      33970.30      -0.0391122
      294.0000      51757.20      33970.30      0.0261057
      297.0000      49397.90      33970.30      0.0075568
      300.0000      49576.00      33970.30      0.1136990
      303.0000      50654.70      33970.30      0.1418228
      306.0000      48315.20      33970.30      0.1482108
      309.0000      47362.30      33970.30      -0.0197519
      312.0000      39005.60      33970.30      -0.1005822
      315.0000      38755.70      33970.30      -0.0660371
      318.0000      43346.20      33970.30      -0.0155478
      321.0000      38155.60      33970.30      0.1074449
      324.0000      40882.70      33970.30      0.0865032
      327.0000      38371.20      33970.30      0.0081944
      330.0000      35369.90      33970.30      -0.0931562
      333.0000      40982.50      33970.30      -0.0401157
      336.0000      34648.30      33970.30      0.0371572
      339.0000      34648.30      33970.30      0.0960535
      342.0000      38607.70      33970.30      0.1723787
      345.0000      38059.90      33970.30      0.1044661
      348.0000      42827.20      33970.30      0.0404414
      351.0000      34482.70      33970.30      0.0363538
      354.0000      27387.30      33970.30      -0.1556850
      357.0000      30288.40      33970.30      -0.0807715
      360.0000      24017.10      33970.30      -0.1388727
       20     121       19.5900     69.0000      1.00000      0.00000
      0.0000      30348.10      27856.20      -0.0478226
      3.0000      25084.30      27856.20      -0.0457782
      6.0000      31721.50      27856.20      0.0090223
      9.0000      29731.70      27856.20      0.0823799
      12.0000      28988.30      27856.20      0.0275120
      15.0000      22359.00      27856.20      -0.0734174
      18.0000      23612.10      27856.20      -0.1594210
      21.0000      25237.80      27856.20      -0.0908117
      24.0000      23246.90      27856.20      0.0009999
      27.0000      30910.30      27856.20      0.0604784
      30.0000      31533.10      27856.20      0.1273942
      33.0000      31712.70      27856.20      0.2965376
      36.0000      26597.50      27856.20      0.1797520
      39.0000      19704.30      27856.20      0.0305813
      42.0000      19869.70      27856.20      -0.0894565
      45.0000      16787.30      27856.20      -0.0466109
      48.0000      26695.50      27856.20      -0.0641715
      51.0000      22186.30      27856.20      -0.0833889
      54.0000      21735.00      27856.20      -0.0326904
      57.0000      20510.10      27856.20      -0.1001448
      60.0000      18356.50      27856.20      -0.1852231
      63.0000      19705.10      27856.20      -0.0668540
      66.0000      26280.00      27856.20      0.1009965
      69.0000      28942.50      27856.20      0.2624310
      72.0000      23999.90      27856.20      0.1856322
      75.0000      26376.50      27856.20      0.1704625
      78.0000      16445.40      27856.20      -0.0038654
      81.0000      16428.80      27856.20      -0.1024206
      84.0000      14053.40      27856.20      -0.1301798
      87.0000      16769.40      27856.20      -0.0862805
      90.0000      17624.40      27856.20      -0.0478226
      93.0000      19245.70      27856.20      -0.0457782
      96.0000      21651.60      27856.20      0.0090223
      99.0000      24405.40      27856.20      0.0823799
      102.0000      23136.40      27856.20      0.0275120
      105.0000      20630.00      27856.20      -0.0734174
      108.0000      13337.50      27856.20      -0.1594210
      111.0000      14882.70      27856.20      -0.0908117
      114.0000      22452.80      27856.20      0.0009999
      117.0000      22143.50      27856.20      0.0604784
      120.0000      25179.50      27856.20      0.1273942
      123.0000      33149.60      27856.20      0.2965376
      126.0000      27365.90      27856.20      0.1797520
      129.0000      20751.50      27856.20      0.0305813
      132.0000      18925.90      27856.20      -0.0894565
      135.0000      18880.80      27856.20      -0.0466110
      138.0000      16598.40      27856.20      -0.0641715
      141.0000      16668.60      27856.20      -0.0833889
      144.0000      19125.00      27856.20      -0.0326904
      147.0000      14770.20      27856.20      -0.1001448
      150.0000      12740.40      27856.20      -0.1852231
      153.0000      20710.10      27856.20      -0.0668540
      156.0000      24928.90      27856.20      0.1009965
      159.0000      24928.90      27856.20      0.2624310
      162.0000      22865.60      27856.20      0.1856322
      165.0000      23497.40      27856.20      0.1704625
      168.0000      20649.70      27856.20      -0.0038654
      171.0000      16866.70      27856.20      -0.1024206
      174.0000      18156.30      27856.20      -0.1301798
      177.0000      17669.80      27856.20      -0.0862805
      180.0000      19798.70      27856.20      -0.0478226
      183.0000      22169.70      27856.20      -0.0457782
      186.0000      17993.10      27856.20      0.0090223
      189.0000      22314.70      27856.20      0.0823799
      192.0000      19095.40      27856.20      0.0275120
      195.0000      22484.30      27856.20      -0.0734174
      198.0000      22405.50      27856.20      -0.1594210
      201.0000      25024.60      27856.20      -0.0908117
      204.0000      25632.10      27856.20      0.0009999
      207.0000      24767.20      27856.20      0.0604784
      210.0000      26844.70      27856.20      0.1273942
      213.0000      30201.20      27856.20      0.2965376
      216.0000      33440.80      27856.20      0.1797520
      219.0000      34086.60      27856.20      0.0305813
      222.0000      29200.80      27856.20      -0.0894565
      225.0000      38477.60      27856.20      -0.0466110
      228.0000      28152.40      27856.20      -0.0641715
      231.0000      29681.50      27856.20      -0.0833889
      234.0000      32239.40      27856.20      -0.0326904
      237.0000      32355.90      27856.20      -0.1001448
      240.0000      31667.90      27856.20      -0.1852231
      243.0000      31498.60      27856.20      -0.0668540
      246.0000      36182.90      27856.20      0.1009965
      249.0000      41961.00      27856.20      0.2624310
      252.0000      44294.40      27856.20      0.1856322
      255.0000      46397.70      27856.20      0.1704625
      258.0000      44841.90      27856.20      -0.0038654
      261.0000      40857.50      27856.20      -0.1024206
      264.0000      41633.80      27856.20      -0.1301798
      267.0000      41438.90      27856.20      -0.0862805
      270.0000      43506.90      27856.20      -0.0478226
      273.0000      42435.50      27856.20      -0.0457782
      276.0000      43419.80      27856.20      0.0090223
      279.0000      44465.70      27856.20      0.0823799
      282.0000      43728.70      27856.20      0.0275120
      285.0000      37346.10      27856.20      -0.0734174
      288.0000      37752.90      27856.20      -0.1594210
      291.0000      38902.40      27856.20      -0.0908117
      294.0000      38976.70      27856.20      0.0009999
      297.0000      38226.40      27856.20      0.0604784
      300.0000      38191.40      27856.20      0.1273942
      303.0000      43040.20      27856.20      0.2965376
      306.0000      40803.10      27856.20      0.1797520
      309.0000      41514.70      27856.20      0.0305813
      312.0000      32558.20      27856.20      -0.0894565
      315.0000      33542.70      27856.20      -0.0466109
      318.0000      29588.90      27856.20      -0.0641715
      321.0000      32415.60      27856.20      -0.0833889
      324.0000      33278.40      27856.20      -0.0326904
      327.0000      32749.40      27856.20      -0.1001448
      330.0000      28366.40      27856.20      -0.1852231
      333.0000      29814.80      27856.20      -0.0668540
      336.0000      29814.80      27856.20      0.1009965
      339.0000      41003.70      27856.20      0.2624310
      342.0000      40084.10      27856.20      0.1856322
      345.0000      30875.70      27856.20      0.1704625
      348.0000      31048.60      27856.20      -0.0038654
      351.0000      26862.00      27856.20      -0.1024206
      354.0000      25098.00      27856.20      -0.1301798
      357.0000      26320.90      27856.20      -0.0862805
      360.0000      19798.70      27856.20      -0.0478226
