      20    2400    0     datakind beginning-row linenumbers
MSCD Version 1.00 Yufeng Chen and Michel A Van Hove
Lawrence Berkeley National Laboratory (LBNL), Berkeley, CA 94720
Copyright (c) Van Hove Group 1997. All rights reserved
--------------------------------------------------------------
angle-resolved photoemission extended fine structure (ARPEFS)
experimental data for Fe 2p3/2 from Fe on STO(100)  excited with hv=1810eV
provided by Pancotti et al. (LNLS in 9, June 2010)
   initial angular momentum (l) = 1
   photon polarization angle (polar, azimuth) = (  30.0,   0.0 ) (deg)
   sample temperature = 300 K
   photoemission angular scan curves
     (curve point theta phi weightc weighte//k intensity chiexp)
      20     2400       1       20     120     2400
       1     120       19.5900     12.2000      1.00000      0.00000
      0.0000      39051.50      36356.40      0.0741293
      3.0000      36723.10      36356.40      0.0100845
      6.0000      38633.10      36356.40      0.0626213
      9.0000      39744.90      36356.40      0.0932017
      12.0000      39854.80      36356.40      0.0962242
      15.0000      38655.20      36356.40      0.0632288
      18.0000      37538.60      36356.40      0.0325164
      21.0000      38172.50      36356.40      0.0499534
      24.0000      37165.90      36356.40      0.0222639
      27.0000      37547.80      36356.40      0.0327700
      30.0000      37203.60      36356.40      0.0233023
      33.0000      38170.70      36356.40      0.0499035
      36.0000      37286.70      36356.40      0.0255868
      39.0000      36599.30      36356.40      0.0066803
      42.0000      35345.00      36356.40      -0.0278188
      45.0000      35559.60      36356.40      -0.0219183
      48.0000      34400.60      36356.40      -0.0537960
      51.0000      34376.70      36356.40      -0.0544538
      54.0000      35577.90      36356.40      -0.0214130
      57.0000      35412.00      36356.40      -0.0259777
      60.0000      34585.00      36356.40      -0.0487233
      63.0000      34644.50      36356.40      -0.0470865
      66.0000      34256.30      36356.40      -0.0577660
      69.0000      33325.20      36356.40      -0.0833750
      72.0000      35037.30      36356.40      -0.0362843
      75.0000      36271.70      36356.40      -0.0023299
      78.0000      36926.40      36356.40      0.0156787
      81.0000      36642.90      36356.40      0.0078796
      84.0000      37873.70      36356.40      0.0417339
      87.0000      37150.60      36356.40      0.0218444
      90.0000      37707.60      36356.40      0.0371660
      93.0000      37330.10      36356.40      0.0267821
      96.0000      38765.00      36356.40      0.0662485
      99.0000      36939.30      36356.40      0.0160325
      102.0000      35895.30      36356.40      -0.0126826
      105.0000      35245.10      36356.40      -0.0305661
      108.0000      35481.10      36356.40      -0.0240772
      111.0000      33916.70      36356.40      -0.0671057
      114.0000      34489.10      36356.40      -0.0513626
      117.0000      34881.80      36356.40      -0.0405592
      120.0000      33990.30      36356.40      -0.0650820
      123.0000      34294.40      36356.40      -0.0567173
      126.0000      35039.40      36356.40      -0.0362260
      129.0000      34543.90      36356.40      -0.0498541
      132.0000      34467.00      36356.40      -0.0519704
      135.0000      34833.80      36356.40      -0.0418796
      138.0000      34632.40      36356.40      -0.0474192
      141.0000      34862.70      36356.40      -0.0410844
      144.0000      34896.80      36356.40      -0.0401464
      147.0000      35522.50      36356.40      -0.0229364
      150.0000      36488.10      36356.40      0.0036213
      153.0000      35874.90      36356.40      -0.0132437
      156.0000      36174.40      36356.40      -0.0050069
      159.0000      37468.00      36356.40      0.0305737
      162.0000      37805.50      36356.40      0.0398566
      165.0000      36751.20      36356.40      0.0108590
      168.0000      37762.90      36356.40      0.0386871
      171.0000      38556.70      36356.40      0.0605197
      174.0000      38016.30      36356.40      0.0456544
      177.0000      39019.80      36356.40      0.0732579
      180.0000      39051.50      36356.40      0.0741294
      183.0000      36723.10      36356.40      0.0100844
      186.0000      38633.10      36356.40      0.0626210
      189.0000      39744.90      36356.40      0.0932016
      192.0000      39854.80      36356.40      0.0962241
      195.0000      38655.20      36356.40      0.0632288
      198.0000      37538.60      36356.40      0.0325167
      201.0000      38172.50      36356.40      0.0499531
      204.0000      37165.90      36356.40      0.0222638
      207.0000      37547.80      36356.40      0.0327690
      210.0000      37203.60      36356.40      0.0233022
      213.0000      38170.70      36356.40      0.0499030
      216.0000      37286.70      36356.40      0.0255874
      219.0000      36599.30      36356.40      0.0066802
      222.0000      35345.00      36356.40      -0.0278184
      225.0000      35559.50      36356.40      -0.0219186
      228.0000      34400.60      36356.40      -0.0537953
      231.0000      34376.70      36356.40      -0.0544535
      234.0000      35577.90      36356.40      -0.0214123
      237.0000      35412.00      36356.40      -0.0259775
      240.0000      34585.00      36356.40      -0.0487228
      243.0000      34644.50      36356.40      -0.0470863
      246.0000      34256.30      36356.40      -0.0577658
      249.0000      33325.20      36356.40      -0.0833747
      252.0000      35037.20      36356.40      -0.0362851
      255.0000      36271.70      36356.40      -0.0023294
      258.0000      36926.50      36356.40      0.0156789
      261.0000      36642.90      36356.40      0.0078798
      264.0000      37873.70      36356.40      0.0417338
      267.0000      37150.60      36356.40      0.0218447
      270.0000      37707.60      36356.40      0.0371660
      273.0000      37330.10      36356.40      0.0267823
      276.0000      38765.00      36356.40      0.0662487
      279.0000      36939.30      36356.40      0.0160330
      282.0000      35895.30      36356.40      -0.0126825
      285.0000      35245.20      36356.40      -0.0305658
      288.0000      35481.00      36356.40      -0.0240783
      291.0000      33916.70      36356.40      -0.0671068
      294.0000      34489.10      36356.40      -0.0513620
      297.0000      34881.80      36356.40      -0.0405592
      300.0000      33990.30      36356.40      -0.0650823
      303.0000      34294.30      36356.40      -0.0567186
      306.0000      35039.40      36356.40      -0.0362257
      309.0000      34543.90      36356.40      -0.0498540
      312.0000      34467.00      36356.40      -0.0519705
      315.0000      34833.80      36356.40      -0.0418809
      318.0000      34632.40      36356.40      -0.0474187
      321.0000      34862.70      36356.40      -0.0410847
      324.0000      34896.80      36356.40      -0.0401470
      327.0000      35522.50      36356.40      -0.0229370
      330.0000      36488.10      36356.40      0.0036209
      333.0000      35874.90      36356.40      -0.0132438
      336.0000      36174.40      36356.40      -0.0050069
      339.0000      37468.00      36356.40      0.0305743
      342.0000      37805.40      36356.40      0.0398557
      345.0000      36751.30      36356.40      0.0108601
      348.0000      37762.90      36356.40      0.0386868
      351.0000      38556.70      36356.40      0.0605201
      354.0000      38016.20      36356.40      0.0456540
      357.0000      39019.80      36356.40      0.0732586
       2     120       19.5900     15.2000      1.00000      0.00000
      0.0000      37403.70      34729.10      0.0770112
      3.0000      38948.70      34729.10      0.1214990
      6.0000      39239.50      34729.10      0.1298730
      9.0000      39226.60      34729.10      0.1295010
      12.0000      39311.40      34729.10      0.1319440
      15.0000      37959.90      34729.10      0.0930282
      18.0000      36970.70      34729.10      0.0645443
      21.0000      35894.20      34729.10      0.0335476
      24.0000      35174.60      34729.10      0.0128268
      27.0000      34005.60      34729.10      -0.0208323
      30.0000      33774.40      34729.10      -0.0274911
      33.0000      33713.70      34729.10      -0.0292386
      36.0000      34218.30      34729.10      -0.0147103
      39.0000      34567.00      34729.10      -0.0046688
      42.0000      34853.00      34729.10      0.0035654
      45.0000      34579.60      34729.10      -0.0043046
      48.0000      34355.80      34729.10      -0.0107490
      51.0000      33764.80      34729.10      -0.0277667
      54.0000      32506.20      34729.10      -0.0640074
      57.0000      31740.50      34729.10      -0.0860553
      60.0000      31998.10      34729.10      -0.0786391
      63.0000      31549.30      34729.10      -0.0915597
      66.0000      31052.80      34729.10      -0.1058580
      69.0000      31585.80      34729.10      -0.0905098
      72.0000      31851.90      34729.10      -0.0828482
      75.0000      31483.00      34729.10      -0.0934694
      78.0000      33136.20      34729.10      -0.0458683
      81.0000      35098.70      34729.10      0.0106422
      84.0000      36060.80      34729.10      0.0383458
      87.0000      37179.30      34729.10      0.0705513
      90.0000      37951.60      34729.10      0.0927894
      93.0000      37843.20      34729.10      0.0896666
      96.0000      36843.80      34729.10      0.0608910
      99.0000      37437.90      34729.10      0.0779973
      102.0000      36743.10      34729.10      0.0579898
      105.0000      35993.80      34729.10      0.0364145
      108.0000      35661.70      34729.10      0.0268534
      111.0000      34256.80      34729.10      -0.0135991
      114.0000      31628.30      34729.10      -0.0892864
      117.0000      31603.00      34729.10      -0.0900135
      120.0000      31961.10      34729.10      -0.0797036
      123.0000      31372.50      34729.10      -0.0966509
      126.0000      32586.90      34729.10      -0.0616828
      129.0000      33539.50      34729.10      -0.0342538
      132.0000      33648.50      34729.10      -0.0311158
      135.0000      33113.60      34729.10      -0.0465189
      138.0000      33369.40      34729.10      -0.0391531
      141.0000      32491.10      34729.10      -0.0644423
      144.0000      33903.00      34729.10      -0.0237880
      147.0000      34415.70      34729.10      -0.0090257
      150.0000      33875.40      34729.10      -0.0245826
      153.0000      33073.70      34729.10      -0.0476669
      156.0000      34920.10      34729.10      0.0054999
      159.0000      33509.10      34729.10      -0.0351291
      162.0000      33477.70      34729.10      -0.0360352
      165.0000      34671.30      34729.10      -0.0016639
      168.0000      35926.40      34729.10      0.0344754
      171.0000      36577.10      34729.10      0.0532114
      174.0000      36523.90      34729.10      0.0516787
      177.0000      41624.20      34729.10      0.1985380
      180.0000      37403.70      34729.10      0.0770111
      183.0000      38948.70      34729.10      0.1214990
      186.0000      39239.50      34729.10      0.1298730
      189.0000      39226.60      34729.10      0.1295010
      192.0000      39311.40      34729.10      0.1319440
      195.0000      37959.90      34729.10      0.0930289
      198.0000      36970.70      34729.10      0.0645451
      201.0000      35894.20      34729.10      0.0335475
      204.0000      35174.60      34729.10      0.0128271
      207.0000      34005.60      34729.10      -0.0208333
      210.0000      33774.40      34729.10      -0.0274913
      213.0000      33713.70      34729.10      -0.0292395
      216.0000      34218.30      34729.10      -0.0147098
      219.0000      34567.00      34729.10      -0.0046699
      222.0000      34853.00      34729.10      0.0035658
      225.0000      34579.60      34729.10      -0.0043051
      228.0000      34355.90      34729.10      -0.0107483
      231.0000      33764.80      34729.10      -0.0277662
      234.0000      32506.30      34729.10      -0.0640061
      237.0000      31740.50      34729.10      -0.0860549
      240.0000      31998.10      34729.10      -0.0786384
      243.0000      31549.40      34729.10      -0.0915591
      246.0000      31052.80      34729.10      -0.1058570
      249.0000      31585.80      34729.10      -0.0905096
      252.0000      31851.90      34729.10      -0.0828488
      255.0000      31483.00      34729.10      -0.0934691
      258.0000      33136.20      34729.10      -0.0458680
      261.0000      35098.70      34729.10      0.0106418
      264.0000      36060.90      34729.10      0.0383460
      267.0000      37179.30      34729.10      0.0705515
      270.0000      37951.60      34729.10      0.0927897
      273.0000      37843.20      34729.10      0.0896661
      276.0000      36843.80      34729.10      0.0608911
      279.0000      37437.90      34729.10      0.0779979
      282.0000      36743.10      34729.10      0.0579899
      285.0000      35993.80      34729.10      0.0364151
      288.0000      35661.70      34729.10      0.0268526
      291.0000      34256.80      34729.10      -0.0135992
      294.0000      31628.40      34729.10      -0.0892843
      297.0000      31603.10      34729.10      -0.0900127
      300.0000      31961.10      34729.10      -0.0797047
      303.0000      31372.40      34729.10      -0.0966533
      306.0000      32587.00      34729.10      -0.0616821
      309.0000      33539.60      34729.10      -0.0342531
      312.0000      33648.50      34729.10      -0.0311165
      315.0000      33113.50      34729.10      -0.0465206
      318.0000      33369.40      34729.10      -0.0391528
      321.0000      32491.10      34729.10      -0.0644423
      324.0000      33902.90      34729.10      -0.0237895
      327.0000      34415.70      34729.10      -0.0090265
      330.0000      33875.30      34729.10      -0.0245844
      333.0000      33073.70      34729.10      -0.0476660
      336.0000      34920.20      34729.10      0.0055005
      339.0000      33509.20      34729.10      -0.0351277
      342.0000      33477.60      34729.10      -0.0360363
      345.0000      34671.40      34729.10      -0.0016623
      348.0000      35926.40      34729.10      0.0344752
      351.0000      36577.10      34729.10      0.0532117
      354.0000      36523.90      34729.10      0.0516782
      357.0000      41624.20      34729.10      0.1985400
       3     120       19.5900     18.2000      1.00000      0.00000
      0.0000      48627.90      40841.50      0.1906500
      3.0000      44206.80      40841.50      0.0823992
      6.0000      47921.30      40841.50      0.1733490
      9.0000      47539.80      40841.50      0.1640060
      12.0000      45577.00      40841.50      0.1159480
      15.0000      44872.20      40841.50      0.0986918
      18.0000      45432.70      40841.50      0.1124150
      21.0000      44680.00      40841.50      0.0939861
      24.0000      42689.40      40841.50      0.0452456
      27.0000      42100.60      40841.50      0.0308281
      30.0000      41181.60      40841.50      0.0083267
      33.0000      39489.10      40841.50      -0.0331135
      36.0000      39597.70      40841.50      -0.0304538
      39.0000      40855.70      40841.50      0.0003478
      42.0000      42851.90      40841.50      0.0492256
      45.0000      41022.30      40841.50      0.0044270
      48.0000      42338.20      40841.50      0.0366464
      51.0000      41178.60      40841.50      0.0082549
      54.0000      39879.00      40841.50      -0.0235666
      57.0000      37467.60      40841.50      -0.0826094
      60.0000      37791.60      40841.50      -0.0746757
      63.0000      36361.50      40841.50      -0.1096920
      66.0000      36209.00      40841.50      -0.1134260
      69.0000      34962.20      40841.50      -0.1439540
      72.0000      35262.10      40841.50      -0.1366120
      75.0000      36036.10      40841.50      -0.1176600
      78.0000      36369.30      40841.50      -0.1095020
      81.0000      37475.90      40841.50      -0.0824052
      84.0000      39799.20      40841.50      -0.0255203
      87.0000      40206.70      40841.50      -0.0155430
      90.0000      40938.40      40841.50      0.0023732
      93.0000      41404.60      40841.50      0.0137873
      96.0000      42624.50      40841.50      0.0436573
      99.0000      40698.60      40841.50      -0.0034989
      102.0000      42167.80      40841.50      0.0324736
      105.0000      40620.10      40841.50      -0.0054214
      108.0000      39705.40      40841.50      -0.0278183
      111.0000      38225.90      40841.50      -0.0640431
      114.0000      38230.00      40841.50      -0.0639414
      117.0000      37273.50      40841.50      -0.0873624
      120.0000      38121.80      40841.50      -0.0665918
      123.0000      37963.70      40841.50      -0.0704625
      126.0000      38563.20      40841.50      -0.0557839
      129.0000      39813.90      40841.50      -0.0251595
      132.0000      40280.50      40841.50      -0.0137372
      135.0000      40638.50      40841.50      -0.0049713
      138.0000      43385.20      40841.50      0.0622813
      141.0000      41596.80      40841.50      0.0184927
      144.0000      41325.10      40841.50      0.0118404
      147.0000      40633.80      40841.50      -0.0050854
      150.0000      39813.60      40841.50      -0.0251674
      153.0000      37484.10      40841.50      -0.0822049
      156.0000      38043.40      40841.50      -0.0685109
      159.0000      39057.20      40841.50      -0.0436895
      162.0000      39553.40      40841.50      -0.0315378
      165.0000      40490.90      40841.50      -0.0085834
      168.0000      41879.00      40841.50      0.0254035
      171.0000      44254.10      40841.50      0.0835575
      174.0000      44404.10      40841.50      0.0872306
      177.0000      51315.40      40841.50      0.2564530
      180.0000      48627.90      40841.50      0.1906500
      183.0000      44206.80      40841.50      0.0823988
      186.0000      47921.30      40841.50      0.1733490
      189.0000      47539.80      40841.50      0.1640070
      192.0000      45577.00      40841.50      0.1159480
      195.0000      44872.20      40841.50      0.0986925
      198.0000      45432.70      40841.50      0.1124160
      201.0000      44680.00      40841.50      0.0939860
      204.0000      42689.40      40841.50      0.0452464
      207.0000      42100.50      40841.50      0.0308273
      210.0000      41181.60      40841.50      0.0083271
      213.0000      39489.10      40841.50      -0.0331141
      216.0000      39597.80      40841.50      -0.0304528
      219.0000      40855.60      40841.50      0.0003462
      222.0000      42852.00      40841.50      0.0492267
      225.0000      41022.30      40841.50      0.0044267
      228.0000      42338.20      40841.50      0.0366474
      231.0000      41178.60      40841.50      0.0082550
      234.0000      39879.10      40841.50      -0.0235647
      237.0000      37467.60      40841.50      -0.0826093
      240.0000      37791.70      40841.50      -0.0746743
      243.0000      36361.60      40841.50      -0.1096900
      246.0000      36209.10      40841.50      -0.1134240
      249.0000      34962.20      40841.50      -0.1439530
      252.0000      35262.10      40841.50      -0.1366120
      255.0000      36036.10      40841.50      -0.1176600
      258.0000      36369.30      40841.50      -0.1095020
      261.0000      37476.00      40841.50      -0.0824051
      264.0000      39799.20      40841.50      -0.0255202
      267.0000      40206.70      40841.50      -0.0155420
      270.0000      40938.40      40841.50      0.0023736
      273.0000      41404.60      40841.50      0.0137869
      276.0000      42624.50      40841.50      0.0436578
      279.0000      40698.60      40841.50      -0.0034980
      282.0000      42167.80      40841.50      0.0324737
      285.0000      40620.10      40841.50      -0.0054204
      288.0000      39705.40      40841.50      -0.0278179
      291.0000      38225.90      40841.50      -0.0640436
      294.0000      38230.10      40841.50      -0.0639402
      297.0000      37273.50      40841.50      -0.0873616
      300.0000      38121.80      40841.50      -0.0665924
      303.0000      37963.60      40841.50      -0.0704655
      306.0000      38563.20      40841.50      -0.0557834
      309.0000      39814.00      40841.50      -0.0251590
      312.0000      40280.40      40841.50      -0.0137387
      315.0000      40638.30      40841.50      -0.0049748
      318.0000      43385.20      40841.50      0.0622826
      321.0000      41596.80      40841.50      0.0184925
      324.0000      41325.10      40841.50      0.0118402
      327.0000      40633.70      40841.50      -0.0050875
      330.0000      39813.60      40841.50      -0.0251689
      333.0000      37484.20      40841.50      -0.0822041
      336.0000      38043.40      40841.50      -0.0685107
      339.0000      39057.20      40841.50      -0.0436886
      342.0000      39553.40      40841.50      -0.0315393
      345.0000      40491.00      40841.50      -0.0085828
      348.0000      41879.00      40841.50      0.0254030
      351.0000      44254.10      40841.50      0.0835578
      354.0000      44404.10      40841.50      0.0872307
      357.0000      51315.50      40841.50      0.2564540
       4     120       19.5900     21.2000      1.00000      0.00000
      0.0000      52344.50      44706.70      0.1708440
      3.0000      50309.30      44706.70      0.1253210
      6.0000      49513.60      44706.70      0.1075230
      9.0000      48308.90      44706.70      0.0805747
      12.0000      49047.90      44706.70      0.0971045
      15.0000      47833.70      44706.70      0.0699459
      18.0000      46956.40      44706.70      0.0503232
      21.0000      45139.20      44706.70      0.0096741
      24.0000      43791.50      44706.70      -0.0204703
      27.0000      42112.80      44706.70      -0.0580201
      30.0000      41818.70      44706.70      -0.0645979
      33.0000      42387.20      44706.70      -0.0518812
      36.0000      44282.30      44706.70      -0.0094914
      39.0000      43551.30      44706.70      -0.0258432
      42.0000      43644.20      44706.70      -0.0237662
      45.0000      43598.10      44706.70      -0.0247959
      48.0000      43347.00      44706.70      -0.0304120
      51.0000      44131.50      44706.70      -0.0128657
      54.0000      47354.20      44706.70      0.0592211
      57.0000      48755.10      44706.70      0.0905547
      60.0000      47311.60      44706.70      0.0582679
      63.0000      44957.40      44706.70      0.0056091
      66.0000      43929.60      44706.70      -0.0173820
      69.0000      41211.30      44706.70      -0.0781837
      72.0000      38808.70      44706.70      -0.1319250
      75.0000      38618.90      44706.70      -0.1361710
      78.0000      40054.50      44706.70      -0.1040590
      81.0000      41152.00      44706.70      -0.0795107
      84.0000      40880.70      44706.70      -0.0855789
      87.0000      45088.80      44706.70      0.0085485
      90.0000      47324.30      44706.70      0.0585506
      93.0000      49386.50      44706.70      0.1046790
      96.0000      48192.30      44706.70      0.0779675
      99.0000      51180.10      44706.70      0.1447970
      102.0000      47311.30      44706.70      0.0582603
      105.0000      46451.40      44706.70      0.0390269
      108.0000      43190.90      44706.70      -0.0339036
      111.0000      41676.30      44706.70      -0.0677830
      114.0000      38431.70      44706.70      -0.1403600
      117.0000      37086.00      44706.70      -0.1704590
      120.0000      37774.40      44706.70      -0.1550600
      123.0000      38646.80      44706.70      -0.1355470
      126.0000      41673.40      44706.70      -0.0678490
      129.0000      43980.50      44706.70      -0.0162422
      132.0000      46357.80      44706.70      0.0369333
      135.0000      46180.00      44706.70      0.0329555
      138.0000      47242.90      44706.70      0.0567305
      141.0000      47336.90      44706.70      0.0588325
      144.0000      47468.50      44706.70      0.0617766
      147.0000      46459.80      44706.70      0.0392132
      150.0000      44880.80      44706.70      0.0038947
      153.0000      44693.50      44706.70      -0.0002951
      156.0000      43368.00      44706.70      -0.0299431
      159.0000      42580.00      44706.70      -0.0475693
      162.0000      42594.90      44706.70      -0.0472367
      165.0000      45218.70      44706.70      0.0114522
      168.0000      45295.90      44706.70      0.0131806
      171.0000      46496.30      44706.70      0.0400299
      174.0000      45278.80      44706.70      0.0127970
      177.0000      48399.90      44706.70      0.0826105
      180.0000      52344.50      44706.70      0.1708430
      183.0000      50309.30      44706.70      0.1253200
      186.0000      49513.70      44706.70      0.1075230
      189.0000      48308.90      44706.70      0.0805748
      192.0000      49047.90      44706.70      0.0971047
      195.0000      47833.80      44706.70      0.0699479
      198.0000      46956.50      44706.70      0.0503244
      201.0000      45139.20      44706.70      0.0096744
      204.0000      43791.50      44706.70      -0.0204693
      207.0000      42112.80      44706.70      -0.0580202
      210.0000      41818.70      44706.70      -0.0645982
      213.0000      42387.20      44706.70      -0.0518817
      216.0000      44282.40      44706.70      -0.0094909
      219.0000      43551.20      44706.70      -0.0258448
      222.0000      43644.20      44706.70      -0.0237663
      225.0000      43598.20      44706.70      -0.0247951
      228.0000      43347.10      44706.70      -0.0304118
      231.0000      44131.50      44706.70      -0.0128657
      234.0000      47354.30      44706.70      0.0592218
      237.0000      48755.10      44706.70      0.0905547
      240.0000      47311.70      44706.70      0.0582690
      243.0000      44957.50      44706.70      0.0056105
      246.0000      43929.60      44706.70      -0.0173810
      249.0000      41211.40      44706.70      -0.0781828
      252.0000      38808.70      44706.70      -0.1319250
      255.0000      38618.90      44706.70      -0.1361700
      258.0000      40054.50      44706.70      -0.1040600
      261.0000      41152.00      44706.70      -0.0795114
      264.0000      40880.70      44706.70      -0.0855786
      267.0000      45088.80      44706.70      0.0085484
      270.0000      47324.20      44706.70      0.0585499
      273.0000      49386.50      44706.70      0.1046780
      276.0000      48192.30      44706.70      0.0779669
      279.0000      51180.10      44706.70      0.1447970
      282.0000      47311.30      44706.70      0.0582605
      285.0000      46451.50      44706.70      0.0390285
      288.0000      43191.00      44706.70      -0.0339033
      291.0000      41676.40      44706.70      -0.0677820
      294.0000      38431.80      44706.70      -0.1403570
      297.0000      37086.00      44706.70      -0.1704580
      300.0000      37774.40      44706.70      -0.1550610
      303.0000      38646.70      44706.70      -0.1355490
      306.0000      41673.40      44706.70      -0.0678490
      309.0000      43980.50      44706.70      -0.0162422
      312.0000      46357.80      44706.70      0.0369325
      315.0000      46179.90      44706.70      0.0329530
      318.0000      47242.90      44706.70      0.0567303
      321.0000      47336.90      44706.70      0.0588322
      324.0000      47468.50      44706.70      0.0617758
      327.0000      46459.70      44706.70      0.0392113
      330.0000      44880.70      44706.70      0.0038925
      333.0000      44693.60      44706.70      -0.0002932
      336.0000      43368.10      44706.70      -0.0299409
      339.0000      42580.10      44706.70      -0.0475668
      342.0000      42594.90      44706.70      -0.0472356
      345.0000      45218.60      44706.70      0.0114521
      348.0000      45295.90      44706.70      0.0131801
      351.0000      46496.20      44706.70      0.0400290
      354.0000      45278.80      44706.70      0.0127975
      357.0000      48399.90      44706.70      0.0826095
       5     120       19.5900     24.2000      1.00000      0.00000
      0.0000      45393.90      42653.40      0.0642505
      3.0000      46733.90      42653.40      0.0956678
      6.0000      45606.90      42653.40      0.0692437
      9.0000      45290.60      42653.40      0.0618294
      12.0000      44754.10      42653.40      0.0492513
      15.0000      42639.10      42653.40      -0.0003359
      18.0000      43194.80      42653.40      0.0126931
      21.0000      43907.30      42653.40      0.0293978
      24.0000      43461.50      42653.40      0.0189454
      27.0000      41946.00      42653.40      -0.0165845
      30.0000      43894.60      42653.40      0.0290999
      33.0000      41344.50      42653.40      -0.0306873
      36.0000      39531.80      42653.40      -0.0731843
      39.0000      38371.10      42653.40      -0.1003970
      42.0000      39481.80      42653.40      -0.0743566
      45.0000      38277.70      42653.40      -0.1025880
      48.0000      41365.70      42653.40      -0.0301885
      51.0000      42759.90      42653.40      0.0024965
      54.0000      43773.50      42653.40      0.0262600
      57.0000      43604.50      42653.40      0.0222997
      60.0000      43268.80      42653.40      0.0144290
      63.0000      44313.90      42653.40      0.0389301
      66.0000      42293.40      42653.40      -0.0084407
      69.0000      41652.50      42653.40      -0.0234661
      72.0000      39773.40      42653.40      -0.0675220
      75.0000      40892.10      42653.40      -0.0412938
      78.0000      38243.20      42653.40      -0.1033970
      81.0000      40003.60      42653.40      -0.0621246
      84.0000      41592.60      42653.40      -0.0248699
      87.0000      44032.50      42653.40      0.0323321
      90.0000      44681.60      42653.40      0.0475516
      93.0000      48453.00      42653.40      0.1359720
      96.0000      48100.60      42653.40      0.1277100
      99.0000      49107.10      42653.40      0.1513060
      102.0000      46836.10      42653.40      0.0980627
      105.0000      46089.50      42653.40      0.0805596
      108.0000      42846.80      42653.40      0.0045348
      111.0000      40201.10      42653.40      -0.0574928
      114.0000      36332.00      42653.40      -0.1482040
      117.0000      37720.60      42653.40      -0.1156490
      120.0000      37604.80      42653.40      -0.1183620
      123.0000      37303.20      42653.40      -0.1254350
      126.0000      40959.00      42653.40      -0.0397255
      129.0000      42561.90      42653.40      -0.0021460
      132.0000      42062.50      42653.40      -0.0138529
      135.0000      42663.20      42653.40      0.0002305
      138.0000      43652.00      42653.40      0.0234113
      141.0000      43013.30      42653.40      0.0084385
      144.0000      42950.90      42653.40      0.0069760
      147.0000      45037.20      42653.40      0.0558891
      150.0000      44305.00      42653.40      0.0387225
      153.0000      44145.50      42653.40      0.0349830
      156.0000      43727.80      42653.40      0.0251887
      159.0000      43590.00      42653.40      0.0219579
      162.0000      40434.70      42653.40      -0.0520171
      165.0000      40249.60      42653.40      -0.0563568
      168.0000      40972.30      42653.40      -0.0394135
      171.0000      40169.60      42653.40      -0.0582319
      174.0000      47428.80      42653.40      0.1119580
      177.0000      44604.50      42653.40      0.0457427
      180.0000      45393.90      42653.40      0.0642500
      183.0000      46733.90      42653.40      0.0956669
      186.0000      45606.80      42653.40      0.0692432
      189.0000      45290.60      42653.40      0.0618293
      192.0000      44754.10      42653.40      0.0492517
      195.0000      42639.10      42653.40      -0.0003346
      198.0000      43194.80      42653.40      0.0126942
      201.0000      43907.30      42653.40      0.0293978
      204.0000      43461.50      42653.40      0.0189461
      207.0000      41946.00      42653.40      -0.0165848
      210.0000      43894.60      42653.40      0.0290995
      213.0000      41344.50      42653.40      -0.0306870
      216.0000      39531.80      42653.40      -0.0731842
      219.0000      38371.10      42653.40      -0.1003980
      222.0000      39481.90      42653.40      -0.0743561
      225.0000      38277.70      42653.40      -0.1025880
      228.0000      41365.70      42653.40      -0.0301891
      231.0000      42759.90      42653.40      0.0024961
      234.0000      43773.50      42653.40      0.0262606
      237.0000      43604.50      42653.40      0.0222996
      240.0000      43268.80      42653.40      0.0144292
      243.0000      44313.90      42653.40      0.0389308
      246.0000      42293.40      42653.40      -0.0084398
      249.0000      41652.50      42653.40      -0.0234658
      252.0000      39773.30      42653.40      -0.0675225
      255.0000      40892.10      42653.40      -0.0412933
      258.0000      38243.20      42653.40      -0.1033970
      261.0000      40003.50      42653.40      -0.0621254
      264.0000      41592.60      42653.40      -0.0248701
      267.0000      44032.40      42653.40      0.0323311
      270.0000      44681.60      42653.40      0.0475509
      273.0000      48453.00      42653.40      0.1359710
      276.0000      48100.60      42653.40      0.1277090
      279.0000      49107.10      42653.40      0.1513070
      282.0000      46836.10      42653.40      0.0980630
      285.0000      46089.60      42653.40      0.0805608
      288.0000      42846.80      42653.40      0.0045341
      291.0000      40201.10      42653.40      -0.0574930
      294.0000      36332.10      42653.40      -0.1482020
      297.0000      37720.60      42653.40      -0.1156490
      300.0000      37604.80      42653.40      -0.1183630
      303.0000      37303.20      42653.40      -0.1254350
      306.0000      40959.00      42653.40      -0.0397255
      309.0000      42561.90      42653.40      -0.0021458
      312.0000      42062.50      42653.40      -0.0138526
      315.0000      42663.20      42653.40      0.0002304
      318.0000      43651.90      42653.40      0.0234097
      321.0000      43013.30      42653.40      0.0084387
      324.0000      42950.90      42653.40      0.0069754
      327.0000      45037.20      42653.40      0.0558888
      330.0000      44305.00      42653.40      0.0387212
      333.0000      44145.60      42653.40      0.0349844
      336.0000      43727.80      42653.40      0.0251904
      339.0000      43590.10      42653.40      0.0219609
      342.0000      40434.80      42653.40      -0.0520154
      345.0000      40249.70      42653.40      -0.0563551
      348.0000      40972.20      42653.40      -0.0394143
      351.0000      40169.60      42653.40      -0.0582322
      354.0000      47428.80      42653.40      0.1119590
      357.0000      44604.50      42653.40      0.0457422
       6     120       19.5900     27.2000      1.00000      0.00000
      0.0000      43771.70      41635.40      0.0513091
      3.0000      48997.40      41635.40      0.1768210
      6.0000      42569.60      41635.40      0.0224375
      9.0000      42422.60      41635.40      0.0189062
      12.0000      41516.80      41635.40      -0.0028472
      15.0000      43346.50      41635.40      0.0410987
      18.0000      43738.10      41635.40      0.0505036
      21.0000      43566.70      41635.40      0.0463869
      24.0000      42818.10      41635.40      0.0284063
      27.0000      39683.50      41635.40      -0.0468808
      30.0000      38683.20      41635.40      -0.0709046
      33.0000      37728.90      41635.40      -0.0938271
      36.0000      40097.50      41635.40      -0.0369363
      39.0000      41104.10      41635.40      -0.0127604
      42.0000      43764.00      41635.40      0.0511260
      45.0000      43848.00      41635.40      0.0531422
      48.0000      44613.70      41635.40      0.0715338
      51.0000      43299.20      41635.40      0.0399625
      54.0000      40722.40      41635.40      -0.0219284
      57.0000      40961.20      41635.40      -0.0161930
      60.0000      40985.50      41635.40      -0.0156079
      63.0000      39453.80      41635.40      -0.0523964
      66.0000      39252.90      41635.40      -0.0572233
      69.0000      40816.60      41635.40      -0.0196658
      72.0000      40008.00      41635.40      -0.0390876
      75.0000      38312.80      41635.40      -0.0798023
      78.0000      36756.50      41635.40      -0.1171810
      81.0000      37495.90      41635.40      -0.0994226
      84.0000      39263.90      41635.40      -0.0569587
      87.0000      41651.60      41635.40      0.0003884
      90.0000      44417.30      41635.40      0.0668157
      93.0000      47334.00      41635.40      0.1368710
      96.0000      46938.20      41635.40      0.1273630
      99.0000      47937.40      41635.40      0.1513620
      102.0000      45756.70      41635.40      0.0989864
      105.0000      44092.60      41635.40      0.0590168
      108.0000      41476.00      41635.40      -0.0038290
      111.0000      40939.60      41635.40      -0.0167124
      114.0000      35964.60      41635.40      -0.1362010
      117.0000      34848.50      41635.40      -0.1630070
      120.0000      36237.80      41635.40      -0.1296390
      123.0000      37538.00      41635.40      -0.0984103
      126.0000      38357.20      41635.40      -0.0787356
      129.0000      41627.50      41635.40      -0.0001893
      132.0000      44216.30      41635.40      0.0619886
      135.0000      42682.70      41635.40      0.0251553
      138.0000      44026.00      41635.40      0.0574189
      141.0000      43166.40      41635.40      0.0367730
      144.0000      42727.20      41635.40      0.0262237
      147.0000      41227.20      41635.40      -0.0098031
      150.0000      43731.40      41635.40      0.0503428
      153.0000      42736.10      41635.40      0.0264376
      156.0000      40794.10      41635.40      -0.0202055
      159.0000      40183.70      41635.40      -0.0348675
      162.0000      41150.60      41635.40      -0.0116423
      165.0000      39757.20      41635.40      -0.0451109
      168.0000      40902.50      41635.40      -0.0176028
      171.0000      43015.60      41635.40      0.0331491
      174.0000      42385.40      41635.40      0.0180144
      177.0000      40704.30      41635.40      -0.0223637
      180.0000      43771.60      41635.40      0.0513081
      183.0000      48997.40      41635.40      0.1768210
      186.0000      42569.60      41635.40      0.0224380
      189.0000      42422.50      41635.40      0.0189058
      192.0000      41516.80      41635.40      -0.0028470
      195.0000      43346.60      41635.40      0.0411005
      198.0000      43738.20      41635.40      0.0505046
      201.0000      43566.70      41635.40      0.0463871
      204.0000      42818.10      41635.40      0.0284072
      207.0000      39683.50      41635.40      -0.0468801
      210.0000      38683.20      41635.40      -0.0709051
      213.0000      37728.80      41635.40      -0.0938274
      216.0000      40097.50      41635.40      -0.0369364
      219.0000      41104.00      41635.40      -0.0127622
      222.0000      43764.00      41635.40      0.0511263
      225.0000      43848.00      41635.40      0.0531422
      228.0000      44613.70      41635.40      0.0715334
      231.0000      43299.30      41635.40      0.0399632
      234.0000      40722.40      41635.40      -0.0219276
      237.0000      40961.20      41635.40      -0.0161931
      240.0000      40985.60      41635.40      -0.0156074
      243.0000      39453.90      41635.40      -0.0523954
      246.0000      39252.90      41635.40      -0.0572223
      249.0000      40816.60      41635.40      -0.0196660
      252.0000      40007.90      41635.40      -0.0390878
      255.0000      38312.80      41635.40      -0.0798020
      258.0000      36756.50      41635.40      -0.1171820
      261.0000      37495.90      41635.40      -0.0994233
      264.0000      39263.90      41635.40      -0.0569585
      267.0000      41651.50      41635.40      0.0003880
      270.0000      44417.30      41635.40      0.0668155
      273.0000      47334.00      41635.40      0.1368690
      276.0000      46938.20      41635.40      0.1273640
      279.0000      47937.40      41635.40      0.1513620
      282.0000      45756.70      41635.40      0.0989864
      285.0000      44092.60      41635.40      0.0590183
      288.0000      41476.00      41635.40      -0.0038286
      291.0000      40939.60      41635.40      -0.0167114
      294.0000      35964.70      41635.40      -0.1361990
      297.0000      34848.60      41635.40      -0.1630060
      300.0000      36237.80      41635.40      -0.1296390
      303.0000      37538.00      41635.40      -0.0984111
      306.0000      38357.20      41635.40      -0.0787356
      309.0000      41627.50      41635.40      -0.0001889
      312.0000      44216.30      41635.40      0.0619876
      315.0000      42682.70      41635.40      0.0251543
      318.0000      44026.00      41635.40      0.0574177
      321.0000      43166.40      41635.40      0.0367724
      324.0000      42727.20      41635.40      0.0262232
      327.0000      41227.20      41635.40      -0.0098033
      330.0000      43731.30      41635.40      0.0503406
      333.0000      42736.20      41635.40      0.0264393
      336.0000      40794.20      41635.40      -0.0202028
      339.0000      40183.70      41635.40      -0.0348663
      342.0000      41150.70      41635.40      -0.0116416
      345.0000      39757.20      41635.40      -0.0451093
      348.0000      40902.50      41635.40      -0.0176031
      351.0000      43015.50      41635.40      0.0331481
      354.0000      42385.40      41635.40      0.0180147
      357.0000      40704.30      41635.40      -0.0223633
       7     120       19.5900     30.2000      1.00000      0.00000
      0.0000      97051.70      94706.40      0.0247646
      3.0000      97918.60      94706.40      0.0339175
      6.0000      95786.20      94706.40      0.0114024
      9.0000      95719.80      94706.40      0.0107012
      12.0000      93896.60      94706.40      -0.0085505
      15.0000      98592.70      94706.40      0.0410361
      18.0000      99109.00      94706.40      0.0464873
      21.0000      96900.40      94706.40      0.0231666
      24.0000      94122.30      94706.40      -0.0061669
      27.0000      96919.40      94706.40      0.0233672
      30.0000      91074.00      94706.40      -0.0383535
      33.0000      89103.50      94706.40      -0.0591603
      36.0000      89482.20      94706.40      -0.0551619
      39.0000      94333.50      94706.40      -0.0039368
      42.0000      92495.20      94706.40      -0.0233477
      45.0000      98818.40      94706.40      0.0434188
      48.0000      101529.00      94706.40      0.0720427
      51.0000      106021.00      94706.40      0.1194670
      54.0000      102558.00      94706.40      0.0829070
      57.0000      101494.00      94706.40      0.0716718
      60.0000      99173.10      94706.40      0.0471643
      63.0000      96071.80      94706.40      0.0144174
      66.0000      96321.00      94706.40      0.0170493
      69.0000      95116.10      94706.40      0.0043269
      72.0000      95182.30      94706.40      0.0050253
      75.0000      96445.60      94706.40      0.0183645
      78.0000      95994.90      94706.40      0.0136060
      81.0000      94051.10      94706.40      -0.0069192
      84.0000      93814.30      94706.40      -0.0094192
      87.0000      97048.60      94706.40      0.0247320
      90.0000      98503.80      94706.40      0.0400964
      93.0000      102425.00      94706.40      0.0814956
      96.0000      102494.00      94706.40      0.0822318
      99.0000      100615.00      94706.40      0.0623887
      102.0000      96745.10      94706.40      0.0215265
      105.0000      95412.80      94706.40      0.0074588
      108.0000      91198.40      94706.40      -0.0370405
      111.0000      90543.60      94706.40      -0.0439539
      114.0000      94323.10      94706.40      -0.0040471
      117.0000      94400.80      94706.40      -0.0032261
      120.0000      93121.30      94706.40      -0.0167366
      123.0000      90513.30      94706.40      -0.0442744
      126.0000      92546.00      94706.40      -0.0228110
      129.0000      94015.40      94706.40      -0.0072963
      132.0000      93933.90      94706.40      -0.0081559
      135.0000      90991.10      94706.40      -0.0392288
      138.0000      91931.90      94706.40      -0.0292957
      141.0000      91010.10      94706.40      -0.0390291
      144.0000      88768.60      94706.40      -0.0626962
      147.0000      89782.70      94706.40      -0.0519887
      150.0000      91693.00      94706.40      -0.0318175
      153.0000      93579.50      94706.40      -0.0118988
      156.0000      89790.30      94706.40      -0.0519081
      159.0000      86710.10      94706.40      -0.0844320
      162.0000      87456.70      94706.40      -0.0765488
      165.0000      83539.30      94706.40      -0.1179130
      168.0000      83838.40      94706.40      -0.1147540
      171.0000      88264.40      94706.40      -0.0680209
      174.0000      104239.00      94706.40      0.1006560
      177.0000      97850.60      94706.40      0.0331995
      180.0000      97051.70      94706.40      0.0247643
      183.0000      97918.50      94706.40      0.0339170
      186.0000      95786.20      94706.40      0.0114020
      189.0000      95719.80      94706.40      0.0107010
      192.0000      93896.50      94706.40      -0.0085510
      195.0000      98592.80      94706.40      0.0410365
      198.0000      99109.00      94706.40      0.0464876
      201.0000      96900.40      94706.40      0.0231671
      204.0000      94122.30      94706.40      -0.0061670
      207.0000      96919.40      94706.40      0.0233672
      210.0000      91074.00      94706.40      -0.0383540
      213.0000      89103.50      94706.40      -0.0591601
      216.0000      89482.10      94706.40      -0.0551628
      219.0000      94333.50      94706.40      -0.0039372
      222.0000      92495.20      94706.40      -0.0233480
      225.0000      98818.40      94706.40      0.0434184
      228.0000      101529.00      94706.40      0.0720415
      231.0000      106021.00      94706.40      0.1194660
      234.0000      102558.00      94706.40      0.0829070
      237.0000      101494.00      94706.40      0.0716719
      240.0000      99173.20      94706.40      0.0471647
      243.0000      96071.80      94706.40      0.0144179
      246.0000      96321.10      94706.40      0.0170502
      249.0000      95116.10      94706.40      0.0043268
      252.0000      95182.30      94706.40      0.0050250
      255.0000      96445.70      94706.40      0.0183652
      258.0000      95994.90      94706.40      0.0136060
      261.0000      94051.10      94706.40      -0.0069188
      264.0000      93814.30      94706.40      -0.0094195
      267.0000      97048.70      94706.40      0.0247324
      270.0000      98503.70      94706.40      0.0400961
      273.0000      102424.00      94706.40      0.0814949
      276.0000      102494.00      94706.40      0.0822333
      279.0000      100615.00      94706.40      0.0623902
      282.0000      96745.00      94706.40      0.0215256
      285.0000      95412.80      94706.40      0.0074590
      288.0000      91198.40      94706.40      -0.0370403
      291.0000      90543.80      94706.40      -0.0439527
      294.0000      94323.10      94706.40      -0.0040471
      297.0000      94400.80      94706.40      -0.0032263
      300.0000      93121.30      94706.40      -0.0167368
      303.0000      90513.40      94706.40      -0.0442732
      306.0000      92546.10      94706.40      -0.0228104
      309.0000      94015.40      94706.40      -0.0072957
      312.0000      93933.90      94706.40      -0.0081562
      315.0000      90991.20      94706.40      -0.0392281
      318.0000      91931.80      94706.40      -0.0292960
      321.0000      91010.10      94706.40      -0.0390290
      324.0000      88768.70      94706.40      -0.0626954
      327.0000      89782.70      94706.40      -0.0519884
      330.0000      91693.00      94706.40      -0.0318184
      333.0000      93579.60      94706.40      -0.0118977
      336.0000      89790.40      94706.40      -0.0519076
      339.0000      86710.20      94706.40      -0.0844305
      342.0000      87456.70      94706.40      -0.0765491
      345.0000      83539.30      94706.40      -0.1179130
      348.0000      83838.30      94706.40      -0.1147550
      351.0000      88264.30      94706.40      -0.0680218
      354.0000      104239.00      94706.40      0.1006560
      357.0000      97850.60      94706.40      0.0331997
       8     120       19.5900     33.2000      1.00000      0.00000
      0.0000      84659.30      94151.40      -0.1008170
      3.0000      88714.70      94151.40      -0.0577443
      6.0000      89510.30      94151.40      -0.0492939
      9.0000      92584.90      94151.40      -0.0166380
      12.0000      93201.40      94151.40      -0.0100899
      15.0000      94165.50      94151.40      0.0001503
      18.0000      94643.20      94151.40      0.0052243
      21.0000      92462.40      94151.40      -0.0179394
      24.0000      92622.70      94151.40      -0.0162368
      27.0000      90238.40      94151.40      -0.0415608
      30.0000      90382.10      94151.40      -0.0400343
      33.0000      89866.60      94151.40      -0.0455092
      36.0000      92711.40      94151.40      -0.0152946
      39.0000      93510.20      94151.40      -0.0068102
      42.0000      98065.80      94151.40      0.0415761
      45.0000      99418.00      94151.40      0.0559381
      48.0000      103607.00      94151.40      0.1004340
      51.0000      101325.00      94151.40      0.0761943
      54.0000      102655.00      94151.40      0.0903173
      57.0000      103146.00      94151.40      0.0955350
      60.0000      101269.00      94151.40      0.0755951
      63.0000      100620.00      94151.40      0.0687026
      66.0000      101546.00      94151.40      0.0785419
      69.0000      99568.70      94151.40      0.0575389
      72.0000      94772.40      94151.40      0.0065960
      75.0000      97946.30      94151.40      0.0403067
      78.0000      93655.60      94151.40      -0.0052652
      81.0000      95702.20      94151.40      0.0164716
      84.0000      97868.90      94151.40      0.0394842
      87.0000      104193.00      94151.40      0.1066590
      90.0000      101928.00      94151.40      0.0825977
      93.0000      101546.00      94151.40      0.0785400
      96.0000      101949.00      94151.40      0.0828216
      99.0000      98137.40      94151.40      0.0423367
      102.0000      93438.20      94151.40      -0.0075746
      105.0000      91299.20      94151.40      -0.0302939
      108.0000      90130.40      94151.40      -0.0427077
      111.0000      83489.90      94151.40      -0.1132380
      114.0000      89378.30      94151.40      -0.0506959
      117.0000      86589.60      94151.40      -0.0803148
      120.0000      84420.60      94151.40      -0.1033520
      123.0000      88308.20      94151.40      -0.0620620
      126.0000      90743.10      94151.40      -0.0361995
      129.0000      85192.00      94151.40      -0.0951587
      132.0000      86931.80      94151.40      -0.0766804
      135.0000      92649.20      94151.40      -0.0159548
      138.0000      92507.70      94151.40      -0.0174582
      141.0000      95358.50      94151.40      0.0128214
      144.0000      97692.30      94151.40      0.0376085
      147.0000      97440.70      94151.40      0.0349367
      150.0000      96039.00      94151.40      0.0200487
      153.0000      94174.00      94151.40      0.0002405
      156.0000      91589.70      94151.40      -0.0272083
      159.0000      90066.50      94151.40      -0.0433860
      162.0000      93204.30      94151.40      -0.0100594
      165.0000      90412.60      94151.40      -0.0397100
      168.0000      91166.90      94151.40      -0.0316985
      171.0000      92992.30      94151.40      -0.0123108
      174.0000      91889.10      94151.40      -0.0240282
      177.0000      93785.30      94151.40      -0.0038882
      180.0000      84659.30      94151.40      -0.1008170
      183.0000      88714.60      94151.40      -0.0577449
      186.0000      89510.20      94151.40      -0.0492944
      189.0000      92584.80      94151.40      -0.0166385
      192.0000      93201.30      94151.40      -0.0100904
      195.0000      94165.60      94151.40      0.0001513
      198.0000      94643.20      94151.40      0.0052243
      201.0000      92462.40      94151.40      -0.0179389
      204.0000      92622.60      94151.40      -0.0162371
      207.0000      90238.40      94151.40      -0.0415600
      210.0000      90382.10      94151.40      -0.0400345
      213.0000      89866.70      94151.40      -0.0455087
      216.0000      92711.30      94151.40      -0.0152949
      219.0000      93510.20      94151.40      -0.0068103
      222.0000      98065.80      94151.40      0.0415756
      225.0000      99418.00      94151.40      0.0559382
      228.0000      103607.00      94151.40      0.1004340
      231.0000      101325.00      94151.40      0.0761943
      234.0000      102655.00      94151.40      0.0903173
      237.0000      103146.00      94151.40      0.0955354
      240.0000      101269.00      94151.40      0.0755954
      243.0000      100620.00      94151.40      0.0687027
      246.0000      101546.00      94151.40      0.0785424
      249.0000      99568.80      94151.40      0.0575392
      252.0000      94772.40      94151.40      0.0065955
      255.0000      97946.30      94151.40      0.0403067
      258.0000      93655.60      94151.40      -0.0052662
      261.0000      95702.20      94151.40      0.0164719
      264.0000      97868.80      94151.40      0.0394836
      267.0000      104193.00      94151.40      0.1066590
      270.0000      101928.00      94151.40      0.0825965
      273.0000      101546.00      94151.40      0.0785398
      276.0000      101949.00      94151.40      0.0828220
      279.0000      98137.60      94151.40      0.0423381
      282.0000      93438.10      94151.40      -0.0075754
      285.0000      91299.20      94151.40      -0.0302936
      288.0000      90130.30      94151.40      -0.0427083
      291.0000      83490.00      94151.40      -0.1132370
      294.0000      89378.30      94151.40      -0.0506955
      297.0000      86589.60      94151.40      -0.0803154
      300.0000      84420.60      94151.40      -0.1033530
      303.0000      88308.30      94151.40      -0.0620606
      306.0000      90743.10      94151.40      -0.0361995
      309.0000      85192.10      94151.40      -0.0951585
      312.0000      86931.80      94151.40      -0.0766805
      315.0000      92649.30      94151.40      -0.0159540
      318.0000      92507.60      94151.40      -0.0174591
      321.0000      95358.50      94151.40      0.0128208
      324.0000      97692.20      94151.40      0.0376075
      327.0000      97440.80      94151.40      0.0349376
      330.0000      96038.90      94151.40      0.0200475
      333.0000      94174.10      94151.40      0.0002411
      336.0000      91589.80      94151.40      -0.0272073
      339.0000      90066.60      94151.40      -0.0433854
      342.0000      93204.40      94151.40      -0.0100581
      345.0000      90412.60      94151.40      -0.0397106
      348.0000      91166.90      94151.40      -0.0316989
      351.0000      92992.20      94151.40      -0.0123115
      354.0000      91889.10      94151.40      -0.0240284
      357.0000      93785.20      94151.40      -0.0038890
       9     120       19.5900     36.2000      1.00000      0.00000
      0.0000      73124.70      79258.90      -0.0773937
      3.0000      77509.50      79258.90      -0.0220722
      6.0000      75823.40      79258.90      -0.0433453
      9.0000      76470.60      79258.90      -0.0351789
      12.0000      76231.90      79258.90      -0.0381913
      15.0000      74482.10      79258.90      -0.0602675
      18.0000      71000.20      79258.90      -0.1041990
      21.0000      70128.80      79258.90      -0.1151940
      24.0000      69832.80      79258.90      -0.1189280
      27.0000      70894.50      79258.90      -0.1055320
      30.0000      74020.80      79258.90      -0.0660879
      33.0000      78573.90      79258.90      -0.0086424
      36.0000      81559.10      79258.90      0.0290217
      39.0000      84519.80      79258.90      0.0663757
      42.0000      86470.10      79258.90      0.0909836
      45.0000      88303.00      79258.90      0.1141080
      48.0000      89214.70      79258.90      0.1256120
      51.0000      87691.20      79258.90      0.1063890
      54.0000      87093.80      79258.90      0.0988523
      57.0000      86782.10      79258.90      0.0949193
      60.0000      85754.00      79258.90      0.0819484
      63.0000      85072.00      79258.90      0.0733440
      66.0000      85418.40      79258.90      0.0777135
      69.0000      83960.70      79258.90      0.0593227
      72.0000      81394.80      79258.90      0.0269489
      75.0000      80739.80      79258.90      0.0186848
      78.0000      78528.30      79258.90      -0.0092174
      81.0000      77248.60      79258.90      -0.0253631
      84.0000      78181.10      79258.90      -0.0135984
      87.0000      80209.70      79258.90      0.0119962
      90.0000      79573.20      79258.90      0.0039657
      93.0000      82011.10      79258.90      0.0347239
      96.0000      83146.50      79258.90      0.0490494
      99.0000      81226.10      79258.90      0.0248204
      102.0000      80669.90      79258.90      0.0178021
      105.0000      79194.70      79258.90      -0.0008103
      108.0000      76179.90      79258.90      -0.0388476
      111.0000      74111.70      79258.90      -0.0649414
      114.0000      72980.10      79258.90      -0.0792184
      117.0000      72399.70      79258.90      -0.0865416
      120.0000      74108.20      79258.90      -0.0649861
      123.0000      76829.80      79258.90      -0.0306480
      126.0000      79344.80      79258.90      0.0010835
      129.0000      82498.20      79258.90      0.0408703
      132.0000      83270.30      79258.90      0.0506110
      135.0000      83629.90      79258.90      0.0551480
      138.0000      82585.80      79258.90      0.0419748
      141.0000      82807.10      79258.90      0.0447677
      144.0000      82564.10      79258.90      0.0417016
      147.0000      80844.40      79258.90      0.0200047
      150.0000      79300.20      79258.90      0.0005218
      153.0000      77682.30      79258.90      -0.0198916
      156.0000      75743.50      79258.90      -0.0443533
      159.0000      75627.50      79258.90      -0.0458166
      162.0000      76656.60      79258.90      -0.0328324
      165.0000      76353.50      79258.90      -0.0366564
      168.0000      76839.50      79258.90      -0.0305249
      171.0000      77516.80      79258.90      -0.0219797
      174.0000      74429.20      79258.90      -0.0609354
      177.0000      79174.20      79258.90      -0.0010685
      180.0000      73124.70      79258.90      -0.0773942
      183.0000      77509.50      79258.90      -0.0220721
      186.0000      75823.40      79258.90      -0.0433455
      189.0000      76470.60      79258.90      -0.0351789
      192.0000      76231.90      79258.90      -0.0381913
      195.0000      74482.30      79258.90      -0.0602655
      198.0000      71000.20      79258.90      -0.1041990
      201.0000      70128.80      79258.90      -0.1151930
      204.0000      69832.80      79258.90      -0.1189280
      207.0000      70894.50      79258.90      -0.1055320
      210.0000      74020.80      79258.90      -0.0660886
      213.0000      78573.90      79258.90      -0.0086423
      216.0000      81559.00      79258.90      0.0290208
      219.0000      84519.70      79258.90      0.0663756
      222.0000      86470.10      79258.90      0.0909830
      225.0000      88303.10      79258.90      0.1141090
      228.0000      89214.70      79258.90      0.1256110
      231.0000      87691.20      79258.90      0.1063900
      234.0000      87093.80      79258.90      0.0988527
      237.0000      86782.10      79258.90      0.0949193
      240.0000      85754.10      79258.90      0.0819488
      243.0000      85072.10      79258.90      0.0733444
      246.0000      85418.40      79258.90      0.0777136
      249.0000      83960.80      79258.90      0.0593230
      252.0000      81394.90      79258.90      0.0269494
      255.0000      80739.70      79258.90      0.0186837
      258.0000      78528.20      79258.90      -0.0092192
      261.0000      77248.70      79258.90      -0.0253628
      264.0000      78181.10      79258.90      -0.0135984
      267.0000      80209.70      79258.90      0.0119959
      270.0000      79573.10      79258.90      0.0039647
      273.0000      82011.00      79258.90      0.0347235
      276.0000      83146.60      79258.90      0.0490505
      279.0000      81226.20      79258.90      0.0248217
      282.0000      80669.80      79258.90      0.0178016
      285.0000      79194.70      79258.90      -0.0008103
      288.0000      76180.00      79258.90      -0.0388462
      291.0000      74111.90      79258.90      -0.0649391
      294.0000      72980.10      79258.90      -0.0792189
      297.0000      72399.60      79258.90      -0.0865422
      300.0000      74108.10      79258.90      -0.0649866
      303.0000      76829.80      79258.90      -0.0306474
      306.0000      79344.70      79258.90      0.0010832
      309.0000      82498.20      79258.90      0.0408701
      312.0000      83270.20      79258.90      0.0506110
      315.0000      83630.00      79258.90      0.0551495
      318.0000      82585.80      79258.90      0.0419748
      321.0000      82807.10      79258.90      0.0447672
      324.0000      82564.10      79258.90      0.0417011
      327.0000      80844.50      79258.90      0.0200052
      330.0000      79300.20      79258.90      0.0005212
      333.0000      77682.40      79258.90      -0.0198903
      336.0000      75743.50      79258.90      -0.0443526
      339.0000      75627.50      79258.90      -0.0458170
      342.0000      76656.70      79258.90      -0.0328315
      345.0000      76353.30      79258.90      -0.0366589
      348.0000      76839.50      79258.90      -0.0305251
      351.0000      77516.70      79258.90      -0.0219809
      354.0000      74429.20      79258.90      -0.0609350
      357.0000      79174.10      79258.90      -0.0010700
       10     120       19.5900     39.2000      1.00000      0.00000
      0.0000      68744.30      79875.00      -0.1393510
      3.0000      69691.60      79875.00      -0.1274910
      6.0000      71577.10      79875.00      -0.1038860
      9.0000      73436.90      79875.00      -0.0806024
      12.0000      75476.00      79875.00      -0.0550733
      15.0000      72392.70      79875.00      -0.0936749
      18.0000      71515.90      79875.00      -0.1046520
      21.0000      72953.20      79875.00      -0.0866579
      24.0000      72121.00      79875.00      -0.0970769
      27.0000      75789.60      79875.00      -0.0511473
      30.0000      78563.00      79875.00      -0.0164265
      33.0000      81814.60      79875.00      0.0242827
      36.0000      83112.70      79875.00      0.0405343
      39.0000      87217.90      79875.00      0.0919296
      42.0000      87918.40      79875.00      0.1007000
      45.0000      91621.70      79875.00      0.1470630
      48.0000      93618.80      79875.00      0.1720660
      51.0000      94933.30      79875.00      0.1885230
      54.0000      95314.90      79875.00      0.1933010
      57.0000      95090.20      79875.00      0.1904870
      60.0000      92456.80      79875.00      0.1575180
      63.0000      91741.80      79875.00      0.1485670
      66.0000      89637.50      79875.00      0.1222220
      69.0000      86095.60      79875.00      0.0778785
      72.0000      84047.20      79875.00      0.0522345
      75.0000      83558.30      79875.00      0.0461125
      78.0000      79695.60      79875.00      -0.0022466
      81.0000      77950.50      79875.00      -0.0240938
      84.0000      77938.90      79875.00      -0.0242393
      87.0000      77899.00      79875.00      -0.0247390
      90.0000      79146.50      79875.00      -0.0091205
      93.0000      80660.60      79875.00      0.0098357
      96.0000      80237.60      79875.00      0.0045393
      99.0000      79693.90      79875.00      -0.0022678
      102.0000      77697.20      79875.00      -0.0272655
      105.0000      74017.90      79875.00      -0.0733282
      108.0000      73250.40      79875.00      -0.0829370
      111.0000      73301.50      79875.00      -0.0822981
      114.0000      73317.20      79875.00      -0.0821015
      117.0000      74276.50      79875.00      -0.0700910
      120.0000      76293.50      79875.00      -0.0448385
      123.0000      77591.60      79875.00      -0.0285876
      126.0000      79478.90      79875.00      -0.0049593
      129.0000      81026.50      79875.00      0.0144165
      132.0000      82317.40      79875.00      0.0305775
      135.0000      82402.90      79875.00      0.0316482
      138.0000      83255.90      79875.00      0.0423272
      141.0000      82712.10      79875.00      0.0355191
      144.0000      83163.70      79875.00      0.0411724
      147.0000      83311.40      79875.00      0.0430217
      150.0000      82846.20      79875.00      0.0371982
      153.0000      80769.10      79875.00      0.0111931
      156.0000      79923.90      79875.00      0.0006123
      159.0000      77922.50      79875.00      -0.0244449
      162.0000      75385.70      79875.00      -0.0562046
      165.0000      73577.00      79875.00      -0.0788485
      168.0000      73301.30      79875.00      -0.0823004
      171.0000      72838.00      79875.00      -0.0880999
      174.0000      71318.20      79875.00      -0.1071270
      177.0000      73541.30      79875.00      -0.0792952
      180.0000      68744.30      79875.00      -0.1393520
      183.0000      69691.60      79875.00      -0.1274920
      186.0000      71577.00      79875.00      -0.1038870
      189.0000      73436.90      79875.00      -0.0806028
      192.0000      75476.00      79875.00      -0.0550736
      195.0000      72392.90      79875.00      -0.0936730
      198.0000      71515.90      79875.00      -0.1046520
      201.0000      72953.30      79875.00      -0.0866566
      204.0000      72121.00      79875.00      -0.0970771
      207.0000      75789.70      79875.00      -0.0511464
      210.0000      78562.90      79875.00      -0.0164271
      213.0000      81814.70      79875.00      0.0242837
      216.0000      83112.60      79875.00      0.0405332
      219.0000      87217.90      79875.00      0.0919302
      222.0000      87918.40      79875.00      0.1006990
      225.0000      91621.80      79875.00      0.1470640
      228.0000      93618.70      79875.00      0.1720650
      231.0000      94933.30      79875.00      0.1885230
      234.0000      95314.90      79875.00      0.1933010
      237.0000      95090.20      79875.00      0.1904870
      240.0000      92456.80      79875.00      0.1575190
      243.0000      91741.80      79875.00      0.1485670
      246.0000      89637.50      79875.00      0.1222220
      249.0000      86095.60      79875.00      0.0778791
      252.0000      84047.30      79875.00      0.0522348
      255.0000      83558.20      79875.00      0.0461119
      258.0000      79695.40      79875.00      -0.0022487
      261.0000      77950.60      79875.00      -0.0240929
      264.0000      77938.90      79875.00      -0.0242398
      267.0000      77899.00      79875.00      -0.0247392
      270.0000      79146.40      79875.00      -0.0091221
      273.0000      80660.60      79875.00      0.0098350
      276.0000      80237.70      79875.00      0.0045404
      279.0000      79694.00      79875.00      -0.0022661
      282.0000      77697.20      79875.00      -0.0272657
      285.0000      74017.90      79875.00      -0.0733286
      288.0000      73250.60      79875.00      -0.0829352
      291.0000      73301.70      79875.00      -0.0822953
      294.0000      73317.10      79875.00      -0.0821025
      297.0000      74276.40      79875.00      -0.0700924
      300.0000      76293.60      79875.00      -0.0448384
      303.0000      77591.80      79875.00      -0.0285852
      306.0000      79478.90      79875.00      -0.0049599
      309.0000      81026.50      79875.00      0.0144161
      312.0000      82317.40      79875.00      0.0305779
      315.0000      82403.10      79875.00      0.0316503
      318.0000      83255.90      79875.00      0.0423268
      321.0000      82712.10      79875.00      0.0355192
      324.0000      83163.60      79875.00      0.0411723
      327.0000      83311.40      79875.00      0.0430219
      330.0000      82846.20      79875.00      0.0371982
      333.0000      80769.10      79875.00      0.0111939
      336.0000      79924.00      79875.00      0.0006128
      339.0000      77922.40      79875.00      -0.0244454
      342.0000      75385.80      79875.00      -0.0562027
      345.0000      73576.70      79875.00      -0.0788519
      348.0000      73301.20      79875.00      -0.0823010
      351.0000      72837.90      79875.00      -0.0881016
      354.0000      71318.30      79875.00      -0.1071270
      357.0000      73541.10      79875.00      -0.0792973
       11     120       19.5900     42.2000      1.00000      0.00000
      0.0000      60807.90      73846.40      -0.1765620
      3.0000      66413.90      73846.40      -0.1006490
      6.0000      63678.90      73846.40      -0.1376850
      9.0000      64197.20      73846.40      -0.1306660
      12.0000      63076.60      73846.40      -0.1458400
      15.0000      61836.80      73846.40      -0.1626300
      18.0000      61521.20      73846.40      -0.1669040
      21.0000      62514.40      73846.40      -0.1534530
      24.0000      64832.50      73846.40      -0.1220630
      27.0000      67958.10      73846.40      -0.0797378
      30.0000      69800.40      73846.40      -0.0547900
      33.0000      71728.00      73846.40      -0.0286871
      36.0000      74903.00      73846.40      0.0143087
      39.0000      78943.50      73846.40      0.0690225
      42.0000      82244.40      73846.40      0.1137220
      45.0000      85720.30      73846.40      0.1607910
      48.0000      88683.90      73846.40      0.2009230
      51.0000      92025.00      73846.40      0.2461670
      54.0000      91623.80      73846.40      0.2407340
      57.0000      89791.50      73846.40      0.2159220
      60.0000      87583.80      73846.40      0.1860270
      63.0000      85296.70      73846.40      0.1550550
      66.0000      80607.50      73846.40      0.0915566
      69.0000      78531.50      73846.40      0.0634438
      72.0000      77259.90      73846.40      0.0462239
      75.0000      77318.90      73846.40      0.0470238
      78.0000      76363.70      73846.40      0.0340887
      81.0000      75811.90      73846.40      0.0266162
      84.0000      74449.20      73846.40      0.0081623
      87.0000      73826.20      73846.40      -0.0002730
      90.0000      74106.30      73846.40      0.0035191
      93.0000      75324.20      73846.40      0.0200120
      96.0000      75338.90      73846.40      0.0202103
      99.0000      74624.30      73846.40      0.0105335
      102.0000      72928.00      73846.40      -0.0124369
      105.0000      70748.00      73846.40      -0.0419578
      108.0000      68839.60      73846.40      -0.0677998
      111.0000      67723.40      73846.40      -0.0829160
      114.0000      68938.40      73846.40      -0.0664618
      117.0000      70207.10      73846.40      -0.0492815
      120.0000      71927.50      73846.40      -0.0259854
      123.0000      72952.90      73846.40      -0.0120999
      126.0000      75042.70      73846.40      0.0161997
      129.0000      77343.00      73846.40      0.0473499
      132.0000      80158.10      73846.40      0.0854709
      135.0000      80673.60      73846.40      0.0924516
      138.0000      82785.70      73846.40      0.1210520
      141.0000      83739.30      73846.40      0.1339660
      144.0000      82247.00      73846.40      0.1137580
      147.0000      80682.90      73846.40      0.0925768
      150.0000      78967.10      73846.40      0.0693422
      153.0000      75474.90      73846.40      0.0220530
      156.0000      72702.30      73846.40      -0.0154930
      159.0000      69592.70      73846.40      -0.0576017
      162.0000      66590.00      73846.40      -0.0982630
      165.0000      63716.90      73846.40      -0.1371700
      168.0000      62215.70      73846.40      -0.1574980
      171.0000      61910.60      73846.40      -0.1616300
      174.0000      61229.90      73846.40      -0.1708480
      177.0000      62703.30      73846.40      -0.1508960
      180.0000      60807.90      73846.40      -0.1765630
      183.0000      66413.80      73846.40      -0.1006490
      186.0000      63678.80      73846.40      -0.1376860
      189.0000      64197.10      73846.40      -0.1306670
      192.0000      63076.60      73846.40      -0.1458400
      195.0000      61837.00      73846.40      -0.1626270
      198.0000      61521.20      73846.40      -0.1669040
      201.0000      62514.50      73846.40      -0.1534520
      204.0000      64832.40      73846.40      -0.1220640
      207.0000      67958.20      73846.40      -0.0797361
      210.0000      69800.30      73846.40      -0.0547905
      213.0000      71728.10      73846.40      -0.0286857
      216.0000      74902.90      73846.40      0.0143068
      219.0000      78943.50      73846.40      0.0690229
      222.0000      82244.30      73846.40      0.1137210
      225.0000      85720.30      73846.40      0.1607920
      228.0000      88683.80      73846.40      0.2009220
      231.0000      92025.00      73846.40      0.2461670
      234.0000      91623.70      73846.40      0.2407340
      237.0000      89791.50      73846.40      0.2159220
      240.0000      87583.80      73846.40      0.1860270
      243.0000      85296.80      73846.40      0.1550570
      246.0000      80607.50      73846.40      0.0915568
      249.0000      78531.50      73846.40      0.0634437
      252.0000      77259.90      73846.40      0.0462245
      255.0000      77318.80      73846.40      0.0470220
      258.0000      76363.50      73846.40      0.0340862
      261.0000      75811.90      73846.40      0.0266161
      264.0000      74449.20      73846.40      0.0081624
      267.0000      73826.20      73846.40      -0.0002737
      270.0000      74106.10      73846.40      0.0035173
      273.0000      75324.20      73846.40      0.0200116
      276.0000      75338.90      73846.40      0.0202112
      279.0000      74624.40      73846.40      0.0105354
      282.0000      72928.00      73846.40      -0.0124366
      285.0000      70748.00      73846.40      -0.0419580
      288.0000      68839.90      73846.40      -0.0677968
      291.0000      67723.60      73846.40      -0.0829127
      294.0000      68938.30      73846.40      -0.0664632
      297.0000      70207.00      73846.40      -0.0492832
      300.0000      71927.50      73846.40      -0.0259850
      303.0000      72953.10      73846.40      -0.0120967
      306.0000      75042.70      73846.40      0.0161992
      309.0000      77343.00      73846.40      0.0473494
      312.0000      80158.10      73846.40      0.0854711
      315.0000      80673.80      73846.40      0.0924546
      318.0000      82785.60      73846.40      0.1210510
      321.0000      83739.40      73846.40      0.1339670
      324.0000      82247.00      73846.40      0.1137580
      327.0000      80683.00      73846.40      0.0925784
      330.0000      78967.10      73846.40      0.0693420
      333.0000      75475.10      73846.40      0.0220547
      336.0000      72702.40      73846.40      -0.0154919
      339.0000      69592.60      73846.40      -0.0576028
      342.0000      66590.20      73846.40      -0.0982606
      345.0000      63716.60      73846.40      -0.1371740
      348.0000      62215.70      73846.40      -0.1574990
      351.0000      61910.40      73846.40      -0.1616330
      354.0000      61230.10      73846.40      -0.1708460
      357.0000      62703.00      73846.40      -0.1509000
       12     120       19.5900     45.2000      1.00000      0.00000
      0.0000      58421.90      72734.50      -0.1967790
      3.0000      64535.20      72734.50      -0.1127300
      6.0000      65034.60      72734.50      -0.1058640
      9.0000      66056.60      72734.50      -0.0918127
      12.0000      66050.60      72734.50      -0.0918956
      15.0000      65991.90      72734.50      -0.0927017
      18.0000      67376.90      72734.50      -0.0736602
      21.0000      67895.10      72734.50      -0.0665351
      24.0000      69745.70      72734.50      -0.0410931
      27.0000      69296.20      72734.50      -0.0472719
      30.0000      70372.70      72734.50      -0.0324725
      33.0000      70970.90      72734.50      -0.0242483
      36.0000      72300.80      72734.50      -0.0059628
      39.0000      74595.00      72734.50      0.0255781
      42.0000      78671.20      72734.50      0.0816214
      45.0000      82158.30      72734.50      0.1295640
      48.0000      83690.70      72734.50      0.1506330
      51.0000      85151.70      72734.50      0.1707190
      54.0000      84962.40      72734.50      0.1681160
      57.0000      83640.40      72734.50      0.1499410
      60.0000      78429.00      72734.50      0.0782913
      63.0000      78557.20      72734.50      0.0800534
      66.0000      76418.00      72734.50      0.0506418
      69.0000      75963.20      72734.50      0.0443898
      72.0000      76908.40      72734.50      0.0573845
      75.0000      80232.10      72734.50      0.1030810
      78.0000      79359.10      72734.50      0.0910778
      81.0000      80805.90      72734.50      0.1109700
      84.0000      81419.10      72734.50      0.1194010
      87.0000      80952.80      72734.50      0.1129900
      90.0000      81314.40      72734.50      0.1179610
      93.0000      80823.60      72734.50      0.1112130
      96.0000      81328.90      72734.50      0.1181610
      99.0000      77942.00      72734.50      0.0715948
      102.0000      75210.10      72734.50      0.0340352
      105.0000      73754.80      72734.50      0.0140274
      108.0000      73778.20      72734.50      0.0143483
      111.0000      71209.40      72734.50      -0.0209684
      114.0000      71020.20      72734.50      -0.0235699
      117.0000      71844.20      72734.50      -0.0122404
      120.0000      69521.20      72734.50      -0.0441795
      123.0000      68577.40      72734.50      -0.0571547
      126.0000      69791.30      72734.50      -0.0404656
      129.0000      71840.20      72734.50      -0.0122965
      132.0000      71779.50      72734.50      -0.0131306
      135.0000      74199.00      72734.50      0.0201337
      138.0000      75248.10      72734.50      0.0345583
      141.0000      75158.50      72734.50      0.0333263
      144.0000      74180.00      72734.50      0.0198730
      147.0000      73087.70      72734.50      0.0048559
      150.0000      70179.40      72734.50      -0.0351291
      153.0000      67219.10      72734.50      -0.0758298
      156.0000      64412.50      72734.50      -0.1144160
      159.0000      61599.50      72734.50      -0.1530920
      162.0000      60583.50      72734.50      -0.1670600
      165.0000      61769.00      72734.50      -0.1507620
      168.0000      62550.20      72734.50      -0.1400210
      171.0000      63577.40      72734.50      -0.1258990
      174.0000      65407.10      72734.50      -0.1007430
      177.0000      69203.20      72734.50      -0.0485513
      180.0000      58421.90      72734.50      -0.1967790
      183.0000      64535.10      72734.50      -0.1127310
      186.0000      65034.50      72734.50      -0.1058650
      189.0000      66056.50      72734.50      -0.0918140
      192.0000      66050.50      72734.50      -0.0918964
      195.0000      65992.00      72734.50      -0.0927001
      198.0000      67376.90      72734.50      -0.0736605
      201.0000      67895.20      72734.50      -0.0665340
      204.0000      69745.60      72734.50      -0.0410939
      207.0000      69296.30      72734.50      -0.0472708
      210.0000      70372.60      72734.50      -0.0324735
      213.0000      70970.90      72734.50      -0.0242476
      216.0000      72300.70      72734.50      -0.0059644
      219.0000      74594.90      72734.50      0.0255780
      222.0000      78671.20      72734.50      0.0816202
      225.0000      82158.30      72734.50      0.1295630
      228.0000      83690.60      72734.50      0.1506310
      231.0000      85151.80      72734.50      0.1707200
      234.0000      84962.30      72734.50      0.1681150
      237.0000      83640.50      72734.50      0.1499410
      240.0000      78429.00      72734.50      0.0782912
      243.0000      78557.20      72734.50      0.0800541
      246.0000      76418.00      72734.50      0.0506419
      249.0000      75963.20      72734.50      0.0443892
      252.0000      76908.40      72734.50      0.0573843
      255.0000      80232.00      72734.50      0.1030800
      258.0000      79359.00      72734.50      0.0910766
      261.0000      80805.90      72734.50      0.1109700
      264.0000      81419.10      72734.50      0.1194010
      267.0000      80952.80      72734.50      0.1129900
      270.0000      81314.30      72734.50      0.1179600
      273.0000      80823.50      72734.50      0.1112120
      276.0000      81329.00      72734.50      0.1181620
      279.0000      77942.20      72734.50      0.0715977
      282.0000      75210.00      72734.50      0.0340348
      285.0000      73754.80      72734.50      0.0140272
      288.0000      73778.20      72734.50      0.0143486
      291.0000      71209.60      72734.50      -0.0209658
      294.0000      71020.10      72734.50      -0.0235709
      297.0000      71844.20      72734.50      -0.0122415
      300.0000      69521.10      72734.50      -0.0441801
      303.0000      68577.70      72734.50      -0.0571513
      306.0000      69791.30      72734.50      -0.0404651
      309.0000      71840.20      72734.50      -0.0122960
      312.0000      71779.50      72734.50      -0.0131307
      315.0000      74199.20      72734.50      0.0201371
      318.0000      75248.10      72734.50      0.0345573
      321.0000      75158.60      72734.50      0.0333269
      324.0000      74180.00      72734.50      0.0198730
      327.0000      73088.00      72734.50      0.0048593
      330.0000      70179.40      72734.50      -0.0351295
      333.0000      67219.20      72734.50      -0.0758283
      336.0000      64412.60      72734.50      -0.1144150
      339.0000      61599.50      72734.50      -0.1530920
      342.0000      60583.60      72734.50      -0.1670590
      345.0000      61768.80      72734.50      -0.1507630
      348.0000      62550.10      72734.50      -0.1400220
      351.0000      63577.30      72734.50      -0.1259000
      354.0000      65407.10      72734.50      -0.1007430
      357.0000      69203.10      72734.50      -0.0485524
       13     120       19.5900     48.2000      1.00000      0.00000
      0.0000      62273.20      69678.30      -0.1062760
      3.0000      62931.60      69678.30      -0.0968256
      6.0000      66929.20      69678.30      -0.0394545
      9.0000      67857.50      69678.30      -0.0261309
      12.0000      68631.20      69678.30      -0.0150281
      15.0000      68510.00      69678.30      -0.0167670
      18.0000      67079.70      69678.30      -0.0372941
      21.0000      66228.50      69678.30      -0.0495104
      24.0000      67434.40      69678.30      -0.0322035
      27.0000      67468.40      69678.30      -0.0317153
      30.0000      66490.50      69678.30      -0.0457501
      33.0000      66619.80      69678.30      -0.0438938
      36.0000      67778.80      69678.30      -0.0272611
      39.0000      66572.30      69678.30      -0.0445761
      42.0000      67913.30      69678.30      -0.0253301
      45.0000      71579.50      69678.30      0.0272861
      48.0000      71416.30      69678.30      0.0249440
      51.0000      70649.50      69678.30      0.0139387
      54.0000      72579.40      69678.30      0.0416360
      57.0000      73825.60      69678.30      0.0595212
      60.0000      72089.60      69678.30      0.0346062
      63.0000      73580.00      69678.30      0.0559967
      66.0000      72800.30      69678.30      0.0448060
      69.0000      71964.00      69678.30      0.0328036
      72.0000      70501.80      69678.30      0.0118185
      75.0000      71119.90      69678.30      0.0206892
      78.0000      70566.80      69678.30      0.0127523
      81.0000      73402.50      69678.30      0.0534493
      84.0000      75650.70      69678.30      0.0857139
      87.0000      78254.90      69678.30      0.1230890
      90.0000      81758.60      69678.30      0.1733730
      93.0000      86190.90      69678.30      0.2369840
      96.0000      86701.00      69678.30      0.2443050
      99.0000      84918.10      69678.30      0.2187170
      102.0000      82370.20      69678.30      0.1821510
      105.0000      78406.60      69678.30      0.1252660
      108.0000      74049.20      69678.30      0.0627298
      111.0000      70807.10      69678.30      0.0161998
      114.0000      69075.50      69678.30      -0.0086504
      117.0000      68643.80      69678.30      -0.0148470
      120.0000      67090.00      69678.30      -0.0371461
      123.0000      65493.40      69678.30      -0.0600602
      126.0000      65608.50      69678.30      -0.0584083
      129.0000      66762.70      69678.30      -0.0418434
      132.0000      66232.50      69678.30      -0.0494533
      135.0000      65393.30      69678.30      -0.0614971
      138.0000      65125.20      69678.30      -0.0653439
      141.0000      65355.40      69678.30      -0.0620407
      144.0000      63872.50      69678.30      -0.0833222
      147.0000      63141.40      69678.30      -0.0938146
      150.0000      62899.60      69678.30      -0.0972856
      153.0000      64161.90      69678.30      -0.0791690
      156.0000      62561.10      69678.30      -0.1021430
      159.0000      62491.30      69678.30      -0.1031450
      162.0000      63585.90      69678.30      -0.0874365
      165.0000      65148.90      69678.30      -0.0650039
      168.0000      66113.60      69678.30      -0.0511595
      171.0000      67715.80      69678.30      -0.0281656
      174.0000      69055.90      69678.30      -0.0089327
      177.0000      69267.90      69678.30      -0.0058902
      180.0000      62273.10      69678.30      -0.1062760
      183.0000      62931.60      69678.30      -0.0968258
      186.0000      66929.10      69678.30      -0.0394551
      189.0000      67857.50      69678.30      -0.0261313
      192.0000      68631.10      69678.30      -0.0150287
      195.0000      68510.10      69678.30      -0.0167656
      198.0000      67079.70      69678.30      -0.0372943
      201.0000      66228.50      69678.30      -0.0495101
      204.0000      67434.40      69678.30      -0.0322041
      207.0000      67468.40      69678.30      -0.0317154
      210.0000      66490.40      69678.30      -0.0457518
      213.0000      66619.80      69678.30      -0.0438938
      216.0000      67778.70      69678.30      -0.0272622
      219.0000      66572.20      69678.30      -0.0445769
      222.0000      67913.20      69678.30      -0.0253313
      225.0000      71579.50      69678.30      0.0272859
      228.0000      71416.20      69678.30      0.0249427
      231.0000      70649.50      69678.30      0.0139390
      234.0000      72579.40      69678.30      0.0416356
      237.0000      73825.60      69678.30      0.0595216
      240.0000      72089.50      69678.30      0.0346057
      243.0000      73580.00      69678.30      0.0559963
      246.0000      72800.30      69678.30      0.0448062
      249.0000      71964.00      69678.30      0.0328032
      252.0000      70501.80      69678.30      0.0118184
      255.0000      71119.90      69678.30      0.0206890
      258.0000      70566.90      69678.30      0.0127527
      261.0000      73402.50      69678.30      0.0534486
      264.0000      75650.70      69678.30      0.0857140
      267.0000      78254.90      69678.30      0.1230890
      270.0000      81758.60      69678.30      0.1733730
      273.0000      86190.80      69678.30      0.2369830
      276.0000      86701.10      69678.30      0.2443060
      279.0000      84918.20      69678.30      0.2187180
      282.0000      82370.10      69678.30      0.1821490
      285.0000      78406.70      69678.30      0.1252670
      288.0000      74049.10      69678.30      0.0627279
      291.0000      70807.10      69678.30      0.0162009
      294.0000      69075.60      69678.30      -0.0086496
      297.0000      68643.70      69678.30      -0.0148476
      300.0000      67089.90      69678.30      -0.0371476
      303.0000      65493.60      69678.30      -0.0600579
      306.0000      65608.60      69678.30      -0.0584072
      309.0000      66762.80      69678.30      -0.0418421
      312.0000      66232.50      69678.30      -0.0494530
      315.0000      65393.50      69678.30      -0.0614940
      318.0000      65125.20      69678.30      -0.0653444
      321.0000      65355.40      69678.30      -0.0620401
      324.0000      63872.50      69678.30      -0.0833226
      327.0000      63141.70      69678.30      -0.0938113
      330.0000      62899.50      69678.30      -0.0972867
      333.0000      64162.00      69678.30      -0.0791675
      336.0000      62561.20      69678.30      -0.1021420
      339.0000      62491.50      69678.30      -0.1031420
      342.0000      63585.90      69678.30      -0.0874356
      345.0000      65149.10      69678.30      -0.0650020
      348.0000      66113.50      69678.30      -0.0511599
      351.0000      67715.80      69678.30      -0.0281651
      354.0000      69055.80      69678.30      -0.0089332
      357.0000      69268.00      69678.30      -0.0058883
       14     120       19.5900     51.2000      1.00000      0.00000
      0.0000      53648.90      60328.10      -0.1107150
      3.0000      61955.80      60328.10      0.0269805
      6.0000      61637.70      60328.10      0.0217083
      9.0000      62184.40      60328.10      0.0307697
      12.0000      61389.90      60328.10      0.0176001
      15.0000      59105.50      60328.10      -0.0202654
      18.0000      55641.40      60328.10      -0.0776859
      21.0000      54282.10      60328.10      -0.1002190
      24.0000      53290.50      60328.10      -0.1166550
      27.0000      54363.70      60328.10      -0.0988664
      30.0000      54041.40      60328.10      -0.1042090
      33.0000      54337.20      60328.10      -0.0993052
      36.0000      55949.10      60328.10      -0.0725858
      39.0000      58841.10      60328.10      -0.0246490
      42.0000      57869.60      60328.10      -0.0407516
      45.0000      58454.00      60328.10      -0.0310641
      48.0000      59027.60      60328.10      -0.0215573
      51.0000      59071.90      60328.10      -0.0208219
      54.0000      58750.50      60328.10      -0.0261500
      57.0000      60600.70      60328.10      0.0045189
      60.0000      61532.60      60328.10      0.0199670
      63.0000      64515.10      60328.10      0.0694045
      66.0000      65108.70      60328.10      0.0792436
      69.0000      63957.20      60328.10      0.0601561
      72.0000      64314.40      60328.10      0.0660774
      75.0000      64316.10      60328.10      0.0661049
      78.0000      63093.80      60328.10      0.0458452
      81.0000      62751.80      60328.10      0.0401761
      84.0000      66211.70      60328.10      0.0975268
      87.0000      66913.90      60328.10      0.1091670
      90.0000      71521.30      60328.10      0.1855390
      93.0000      76410.30      60328.10      0.2665800
      96.0000      83013.90      60328.10      0.3760420
      99.0000      82090.30      60328.10      0.3607320
      102.0000      80239.20      60328.10      0.3300470
      105.0000      77475.30      60328.10      0.2842330
      108.0000      70645.00      60328.10      0.1710130
      111.0000      61600.40      60328.10      0.0210905
      114.0000      58978.80      60328.10      -0.0223664
      117.0000      60078.10      60328.10      -0.0041442
      120.0000      57671.70      60328.10      -0.0440322
      123.0000      58252.00      60328.10      -0.0344129
      126.0000      59404.00      60328.10      -0.0153178
      129.0000      57528.40      60328.10      -0.0464082
      132.0000      55157.50      60328.10      -0.0857079
      135.0000      53774.90      60328.10      -0.1086260
      138.0000      52766.20      60328.10      -0.1253450
      141.0000      51714.10      60328.10      -0.1427860
      144.0000      53591.80      60328.10      -0.1116610
      147.0000      52859.00      60328.10      -0.1238080
      150.0000      52776.30      60328.10      -0.1251780
      153.0000      53177.30      60328.10      -0.1185310
      156.0000      53886.70      60328.10      -0.1067720
      159.0000      53216.10      60328.10      -0.1178890
      162.0000      52761.60      60328.10      -0.1254210
      165.0000      53190.40      60328.10      -0.1183140
      168.0000      54240.50      60328.10      -0.1009070
      171.0000      55811.70      60328.10      -0.0748641
      174.0000      58833.40      60328.10      -0.0247760
      177.0000      59860.30      60328.10      -0.0077538
      180.0000      53648.80      60328.10      -0.1107160
      183.0000      61955.70      60328.10      0.0269801
      186.0000      61637.60      60328.10      0.0217075
      189.0000      62184.40      60328.10      0.0307697
      192.0000      61389.80      60328.10      0.0176000
      195.0000      59105.60      60328.10      -0.0202637
      198.0000      55641.40      60328.10      -0.0776856
      201.0000      54282.10      60328.10      -0.1002190
      204.0000      53290.40      60328.10      -0.1166560
      207.0000      54363.60      60328.10      -0.0988667
      210.0000      54041.20      60328.10      -0.1042110
      213.0000      54337.10      60328.10      -0.0993063
      216.0000      55949.00      60328.10      -0.0725878
      219.0000      58841.00      60328.10      -0.0246502
      222.0000      57869.50      60328.10      -0.0407534
      225.0000      58454.10      60328.10      -0.0310635
      228.0000      59027.50      60328.10      -0.0215591
      231.0000      59071.90      60328.10      -0.0208218
      234.0000      58750.40      60328.10      -0.0261509
      237.0000      60600.70      60328.10      0.0045192
      240.0000      61532.50      60328.10      0.0199654
      243.0000      64515.10      60328.10      0.0694036
      246.0000      65108.70      60328.10      0.0792443
      249.0000      63957.10      60328.10      0.0601547
      252.0000      64314.40      60328.10      0.0660774
      255.0000      64316.10      60328.10      0.0661051
      258.0000      63093.90      60328.10      0.0458462
      261.0000      62751.70      60328.10      0.0401749
      264.0000      66211.70      60328.10      0.0975272
      267.0000      66913.90      60328.10      0.1091670
      270.0000      71521.30      60328.10      0.1855390
      273.0000      76410.20      60328.10      0.2665780
      276.0000      83014.00      60328.10      0.3760420
      279.0000      82090.40      60328.10      0.3607330
      282.0000      80239.10      60328.10      0.3300460
      285.0000      77475.40      60328.10      0.2842340
      288.0000      70644.90      60328.10      0.1710110
      291.0000      61600.60      60328.10      0.0210929
      294.0000      58978.80      60328.10      -0.0223653
      297.0000      60078.00      60328.10      -0.0041455
      300.0000      57671.50      60328.10      -0.0440347
      303.0000      58252.10      60328.10      -0.0344110
      306.0000      59404.10      60328.10      -0.0153160
      309.0000      57528.50      60328.10      -0.0464060
      312.0000      55157.50      60328.10      -0.0857072
      315.0000      53775.20      60328.10      -0.1086210
      318.0000      52766.20      60328.10      -0.1253460
      321.0000      51714.10      60328.10      -0.1427850
      324.0000      53591.70      60328.10      -0.1116620
      327.0000      52859.20      60328.10      -0.1238040
      330.0000      52776.30      60328.10      -0.1251790
      333.0000      53177.50      60328.10      -0.1185280
      336.0000      53886.80      60328.10      -0.1067700
      339.0000      53216.30      60328.10      -0.1178850
      342.0000      52761.80      60328.10      -0.1254200
      345.0000      53190.60      60328.10      -0.1183100
      348.0000      54240.60      60328.10      -0.1009070
      351.0000      55811.70      60328.10      -0.0748628
      354.0000      58833.30      60328.10      -0.0247768
      357.0000      59860.40      60328.10      -0.0077515
       15     120       19.5900     54.2000      1.00000      0.00000
      0.0000      50526.30      53642.50      -0.0580918
      3.0000      55343.60      53642.50      0.0317129
      6.0000      55258.90      53642.50      0.0301333
      9.0000      55717.20      53642.50      0.0386768
      12.0000      53547.20      53642.50      -0.0017756
      15.0000      52152.10      53642.50      -0.0277846
      18.0000      50716.00      53642.50      -0.0545557
      21.0000      47703.00      53642.50      -0.1107240
      24.0000      46078.50      53642.50      -0.1410070
      27.0000      46355.80      53642.50      -0.1358390
      30.0000      45385.60      53642.50      -0.1539250
      33.0000      44790.10      53642.50      -0.1650260
      36.0000      47510.70      53642.50      -0.1143080
      39.0000      50277.90      53642.50      -0.0627232
      42.0000      50539.40      53642.50      -0.0578471
      45.0000      52687.30      53642.50      -0.0178059
      48.0000      54446.60      53642.50      0.0149900
      51.0000      55682.20      53642.50      0.0380245
      54.0000      55216.70      53642.50      0.0293458
      57.0000      55722.10      53642.50      0.0387672
      60.0000      56376.80      53642.50      0.0509731
      63.0000      57065.20      53642.50      0.0638056
      66.0000      55409.90      53642.50      0.0329483
      69.0000      56945.40      53642.50      0.0615729
      72.0000      56738.90      53642.50      0.0577232
      75.0000      55503.80      53642.50      0.0346991
      78.0000      54047.80      53642.50      0.0075563
      81.0000      55008.10      53642.50      0.0254582
      84.0000      57381.30      53642.50      0.0696991
      87.0000      61191.50      53642.50      0.1407280
      90.0000      64603.90      53642.50      0.2043420
      93.0000      69684.70      53642.50      0.2990580
      96.0000      70947.20      53642.50      0.3225930
      99.0000      70464.70      53642.50      0.3135980
      102.0000      67170.00      53642.50      0.2521780
      105.0000      63879.30      53642.50      0.1908340
      108.0000      59788.20      53642.50      0.1145690
      111.0000      56748.80      53642.50      0.0579076
      114.0000      54356.20      53642.50      0.0133042
      117.0000      52558.70      53642.50      -0.0202033
      120.0000      50583.80      53642.50      -0.0570207
      123.0000      49732.40      53642.50      -0.0728917
      126.0000      49673.00      53642.50      -0.0739997
      129.0000      48437.30      53642.50      -0.0970341
      132.0000      48970.00      53642.50      -0.0871040
      135.0000      51156.80      53642.50      -0.0463380
      138.0000      51180.30      53642.50      -0.0459007
      141.0000      52019.80      53642.50      -0.0302498
      144.0000      52261.90      53642.50      -0.0257374
      147.0000      51218.50      53642.50      -0.0451874
      150.0000      49689.00      53642.50      -0.0737000
      153.0000      49831.70      53642.50      -0.0710404
      156.0000      49291.90      53642.50      -0.0811039
      159.0000      47445.60      53642.50      -0.1155220
      162.0000      46903.20      53642.50      -0.1256330
      165.0000      47437.90      53642.50      -0.1156660
      168.0000      48922.30      53642.50      -0.0879925
      171.0000      48418.50      53642.50      -0.0973851
      174.0000      55112.70      53642.50      0.0274068
      177.0000      48735.10      53642.50      -0.0914828
      180.0000      50526.30      53642.50      -0.0580926
      183.0000      55343.60      53642.50      0.0317127
      186.0000      55258.90      53642.50      0.0301329
      189.0000      55717.20      53642.50      0.0386771
      192.0000      53547.20      53642.50      -0.0017758
      195.0000      52152.10      53642.50      -0.0277830
      198.0000      50716.00      53642.50      -0.0545551
      201.0000      47703.00      53642.50      -0.1107230
      204.0000      46078.50      53642.50      -0.1410070
      207.0000      46355.80      53642.50      -0.1358380
      210.0000      45385.50      53642.50      -0.1539270
      213.0000      44790.00      53642.50      -0.1650270
      216.0000      47510.60      53642.50      -0.1143100
      219.0000      50277.80      53642.50      -0.0627245
      222.0000      50539.30      53642.50      -0.0578487
      225.0000      52687.40      53642.50      -0.0178053
      228.0000      54446.40      53642.50      0.0149873
      231.0000      55682.20      53642.50      0.0380246
      234.0000      55216.60      53642.50      0.0293447
      237.0000      55722.10      53642.50      0.0387679
      240.0000      56376.80      53642.50      0.0509721
      243.0000      57065.20      53642.50      0.0638055
      246.0000      55409.90      53642.50      0.0329489
      249.0000      56945.30      53642.50      0.0615711
      252.0000      56738.90      53642.50      0.0577231
      255.0000      55503.80      53642.50      0.0346992
      258.0000      54047.90      53642.50      0.0075571
      261.0000      55008.00      53642.50      0.0254566
      264.0000      57381.40      53642.50      0.0696998
      267.0000      61191.40      53642.50      0.1407270
      270.0000      64603.90      53642.50      0.2043420
      273.0000      69684.70      53642.50      0.2990570
      276.0000      70947.20      53642.50      0.3225930
      279.0000      70464.70      53642.50      0.3135990
      282.0000      67169.90      53642.50      0.2521770
      285.0000      63879.40      53642.50      0.1908350
      288.0000      59788.20      53642.50      0.1145670
      291.0000      56748.90      53642.50      0.0579100
      294.0000      54356.20      53642.50      0.0133057
      297.0000      52558.70      53642.50      -0.0202039
      300.0000      50583.70      53642.50      -0.0570222
      303.0000      49732.50      53642.50      -0.0728901
      306.0000      49673.00      53642.50      -0.0739983
      309.0000      48437.40      53642.50      -0.0970324
      312.0000      48970.00      53642.50      -0.0871037
      315.0000      51157.00      53642.50      -0.0463340
      318.0000      51180.20      53642.50      -0.0459026
      321.0000      52019.80      53642.50      -0.0302496
      324.0000      52261.90      53642.50      -0.0257375
      327.0000      51218.70      53642.50      -0.0451834
      330.0000      49688.90      53642.50      -0.0737019
      333.0000      49831.90      53642.50      -0.0710373
      336.0000      49292.00      53642.50      -0.0811013
      339.0000      47445.80      53642.50      -0.1155190
      342.0000      46903.30      53642.50      -0.1256310
      345.0000      47438.10      53642.50      -0.1156630
      348.0000      48922.30      53642.50      -0.0879928
      351.0000      48418.50      53642.50      -0.0973848
      354.0000      55112.60      53642.50      0.0274064
      357.0000      48735.20      53642.50      -0.0914813
       16     120       19.5900     57.2000      1.00000      0.00000
      0.0000      41171.10      45588.40      -0.0968960
      3.0000      42251.90      45588.40      -0.0731881
      6.0000      43605.00      45588.40      -0.0435068
      9.0000      44092.50      45588.40      -0.0328130
      12.0000      43993.60      45588.40      -0.0349837
      15.0000      43684.80      45588.40      -0.0417568
      18.0000      42451.70      45588.40      -0.0688048
      21.0000      41350.00      45588.40      -0.0929723
      24.0000      40931.70      45588.40      -0.1021460
      27.0000      40760.40      45588.40      -0.1059050
      30.0000      40375.40      45588.40      -0.1143500
      33.0000      40393.10      45588.40      -0.1139610
      36.0000      41565.90      45588.40      -0.0882359
      39.0000      42633.10      45588.40      -0.0648266
      42.0000      44222.40      45588.40      -0.0299648
      45.0000      46803.50      45588.40      0.0266536
      48.0000      49157.70      45588.40      0.0782931
      51.0000      50560.00      45588.40      0.1090540
      54.0000      51058.30      45588.40      0.1199840
      57.0000      51537.20      45588.40      0.1304890
      60.0000      49987.30      45588.40      0.0964914
      63.0000      47738.20      45588.40      0.0471553
      66.0000      47242.00      45588.40      0.0362718
      69.0000      48205.90      45588.40      0.0574164
      72.0000      47975.80      45588.40      0.0523681
      75.0000      48926.60      45588.40      0.0732236
      78.0000      50467.50      45588.40      0.1070230
      81.0000      51636.00      45588.40      0.1326560
      84.0000      51779.20      45588.40      0.1357980
      87.0000      50615.60      45588.40      0.1102730
      90.0000      51417.20      45588.40      0.1278570
      93.0000      53255.50      45588.40      0.1681790
      96.0000      52327.20      45588.40      0.1478170
      99.0000      50729.10      45588.40      0.1127620
      102.0000      51277.60      45588.40      0.1247940
      105.0000      51033.20      45588.40      0.1194340
      108.0000      47773.90      45588.40      0.0479384
      111.0000      46203.60      45588.40      0.0134942
      114.0000      45604.50      45588.40      0.0003529
      117.0000      45234.00      45588.40      -0.0077752
      120.0000      42983.80      45588.40      -0.0571326
      123.0000      43255.80      45588.40      -0.0511672
      126.0000      43859.40      45588.40      -0.0379278
      129.0000      44430.30      45588.40      -0.0254029
      132.0000      44704.70      45588.40      -0.0193840
      135.0000      45904.70      45588.40      0.0069374
      138.0000      46967.30      45588.40      0.0302473
      141.0000      46871.60      45588.40      0.0281478
      144.0000      45469.60      45588.40      -0.0026063
      147.0000      43546.90      45588.40      -0.0447816
      150.0000      39786.60      45588.40      -0.1272660
      153.0000      38152.80      45588.40      -0.1631040
      156.0000      37291.00      45588.40      -0.1820080
      159.0000      38146.40      45588.40      -0.1632430
      162.0000      38854.20      45588.40      -0.1477180
      165.0000      42114.50      45588.40      -0.0762025
      168.0000      42905.50      45588.40      -0.0588515
      171.0000      44650.90      45588.40      -0.0205649
      174.0000      44478.50      45588.40      -0.0243468
      177.0000      48901.90      45588.40      0.0726832
      180.0000      41171.10      45588.40      -0.0968961
      183.0000      42251.90      45588.40      -0.0731884
      186.0000      43605.00      45588.40      -0.0435075
      189.0000      44092.50      45588.40      -0.0328134
      192.0000      43993.50      45588.40      -0.0349845
      195.0000      43684.90      45588.40      -0.0417555
      198.0000      42451.70      45588.40      -0.0688049
      201.0000      41350.00      45588.40      -0.0929717
      204.0000      40931.70      45588.40      -0.1021470
      207.0000      40760.40      45588.40      -0.1059040
      210.0000      40375.30      45588.40      -0.1143510
      213.0000      40393.10      45588.40      -0.1139610
      216.0000      41565.80      45588.40      -0.0882374
      219.0000      42633.00      45588.40      -0.0648274
      222.0000      44222.30      45588.40      -0.0299665
      225.0000      46803.50      45588.40      0.0266533
      228.0000      49157.60      45588.40      0.0782915
      231.0000      50560.00      45588.40      0.1090540
      234.0000      51058.30      45588.40      0.1199830
      237.0000      51537.30      45588.40      0.1304900
      240.0000      49987.30      45588.40      0.0964909
      243.0000      47738.20      45588.40      0.0471557
      246.0000      47242.00      45588.40      0.0362718
      249.0000      48205.90      45588.40      0.0574156
      252.0000      47975.80      45588.40      0.0523685
      255.0000      48926.50      45588.40      0.0732221
      258.0000      50467.40      45588.40      0.1070230
      261.0000      51636.00      45588.40      0.1326550
      264.0000      51779.30      45588.40      0.1357980
      267.0000      50615.60      45588.40      0.1102730
      270.0000      51417.20      45588.40      0.1278560
      273.0000      53255.40      45588.40      0.1681790
      276.0000      52327.20      45588.40      0.1478180
      279.0000      50729.20      45588.40      0.1127640
      282.0000      51277.50      45588.40      0.1247920
      285.0000      51033.30      45588.40      0.1194350
      288.0000      47773.80      45588.40      0.0479374
      291.0000      46203.70      45588.40      0.0134969
      294.0000      45604.50      45588.40      0.0003523
      297.0000      45233.90      45588.40      -0.0077758
      300.0000      42983.80      45588.40      -0.0571338
      303.0000      43255.90      45588.40      -0.0511645
      306.0000      43859.40      45588.40      -0.0379268
      309.0000      44430.40      45588.40      -0.0254019
      312.0000      44704.70      45588.40      -0.0193847
      315.0000      45904.80      45588.40      0.0069404
      318.0000      46967.30      45588.40      0.0302470
      321.0000      46871.60      45588.40      0.0281479
      324.0000      45469.60      45588.40      -0.0026061
      327.0000      43547.10      45588.40      -0.0447771
      330.0000      39786.50      45588.40      -0.1272670
      333.0000      38152.90      45588.40      -0.1631020
      336.0000      37291.00      45588.40      -0.1820070
      339.0000      38146.50      45588.40      -0.1632420
      342.0000      38854.20      45588.40      -0.1477180
      345.0000      42114.40      45588.40      -0.0762031
      348.0000      42905.40      45588.40      -0.0588523
      351.0000      44650.90      45588.40      -0.0205647
      354.0000      44478.50      45588.40      -0.0243469
      357.0000      48901.90      45588.40      0.0726824
       17     120       19.5900     60.2000      1.00000      0.00000
      0.0000      35834.20      42388.40      -0.1546220
      3.0000      35627.90      42388.40      -0.1594900
      6.0000      35198.30      42388.40      -0.1696230
      9.0000      35191.50      42388.40      -0.1697850
      12.0000      35866.10      42388.40      -0.1538690
      15.0000      37732.10      42388.40      -0.1098480
      18.0000      37797.10      42388.40      -0.1083130
      21.0000      38870.60      42388.40      -0.0829887
      24.0000      39192.40      42388.40      -0.0753966
      27.0000      40140.10      42388.40      -0.0530402
      30.0000      39044.00      42388.40      -0.0788992
      33.0000      39347.10      42388.40      -0.0717489
      36.0000      39986.30      42388.40      -0.0566682
      39.0000      41566.80      42388.40      -0.0193826
      42.0000      42857.90      42388.40      0.0110780
      45.0000      44680.70      42388.40      0.0540784
      48.0000      47515.60      42388.40      0.1209580
      51.0000      48714.70      42388.40      0.1492470
      54.0000      50270.40      42388.40      0.1859490
      57.0000      49487.10      42388.40      0.1674690
      60.0000      48816.10      42388.40      0.1516380
      63.0000      47851.90      42388.40      0.1288920
      66.0000      47341.90      42388.40      0.1168610
      69.0000      45552.70      42388.40      0.0746516
      72.0000      45182.50      42388.40      0.0659184
      75.0000      46068.90      42388.40      0.0868290
      78.0000      47446.00      42388.40      0.1193160
      81.0000      46479.50      42388.40      0.0965155
      84.0000      46691.50      42388.40      0.1015180
      87.0000      48523.10      42388.40      0.1447270
      90.0000      49143.20      42388.40      0.1593550
      93.0000      47665.10      42388.40      0.1244860
      96.0000      47907.50      42388.40      0.1302050
      99.0000      49737.90      42388.40      0.1733860
      102.0000      49325.10      42388.40      0.1636480
      105.0000      48481.50      42388.40      0.1437460
      108.0000      47786.40      42388.40      0.1273460
      111.0000      46587.90      42388.40      0.0990736
      114.0000      44630.20      42388.40      0.0528889
      117.0000      43029.70      42388.40      0.0151290
      120.0000      41381.00      42388.40      -0.0237664
      123.0000      40577.10      42388.40      -0.0427306
      126.0000      40224.80      42388.40      -0.0510426
      129.0000      40225.60      42388.40      -0.0510231
      132.0000      39777.60      42388.40      -0.0615906
      135.0000      40541.20      42388.40      -0.0435774
      138.0000      41180.00      42388.40      -0.0285074
      141.0000      41539.30      42388.40      -0.0200301
      144.0000      41748.90      42388.40      -0.0150868
      147.0000      39847.50      42388.40      -0.0599425
      150.0000      37178.90      42388.40      -0.1228990
      153.0000      35864.00      42388.40      -0.1539200
      156.0000      35128.80      42388.40      -0.1712620
      159.0000      34203.50      42388.40      -0.1930920
      162.0000      35696.90      42388.40      -0.1578600
      165.0000      37512.00      42388.40      -0.1150410
      168.0000      39111.30      42388.40      -0.0773113
      171.0000      40148.00      42388.40      -0.0528525
      174.0000      41680.70      42388.40      -0.0166952
      177.0000      40565.60      42388.40      -0.0430016
      180.0000      35834.20      42388.40      -0.1546220
      183.0000      35627.80      42388.40      -0.1594900
      186.0000      35198.30      42388.40      -0.1696230
      189.0000      35191.50      42388.40      -0.1697850
      192.0000      35866.10      42388.40      -0.1538700
      195.0000      37732.10      42388.40      -0.1098470
      198.0000      37797.10      42388.40      -0.1083140
      201.0000      38870.60      42388.40      -0.0829879
      204.0000      39192.40      42388.40      -0.0753976
      207.0000      40140.10      42388.40      -0.0530388
      210.0000      39043.90      42388.40      -0.0789004
      213.0000      39347.10      42388.40      -0.0717479
      216.0000      39986.20      42388.40      -0.0566703
      219.0000      41566.80      42388.40      -0.0193831
      222.0000      42857.90      42388.40      0.0110757
      225.0000      44680.70      42388.40      0.0540782
      228.0000      47515.50      42388.40      0.1209560
      231.0000      48714.70      42388.40      0.1492470
      234.0000      50270.40      42388.40      0.1859480
      237.0000      49487.10      42388.40      0.1674700
      240.0000      48816.00      42388.40      0.1516370
      243.0000      47851.90      42388.40      0.1288920
      246.0000      47341.90      42388.40      0.1168610
      249.0000      45552.70      42388.40      0.0746510
      252.0000      45182.60      42388.40      0.0659190
      255.0000      46068.90      42388.40      0.0868276
      258.0000      47446.00      42388.40      0.1193160
      261.0000      46479.50      42388.40      0.0965152
      264.0000      46691.50      42388.40      0.1015180
      267.0000      48523.10      42388.40      0.1447270
      270.0000      49143.10      42388.40      0.1593540
      273.0000      47665.10      42388.40      0.1244850
      276.0000      47907.60      42388.40      0.1302060
      279.0000      49738.00      42388.40      0.1733880
      282.0000      49325.10      42388.40      0.1636460
      285.0000      48481.50      42388.40      0.1437460
      288.0000      47786.30      42388.40      0.1273450
      291.0000      46588.10      42388.40      0.0990762
      294.0000      44630.20      42388.40      0.0528883
      297.0000      43029.60      42388.40      0.0151283
      300.0000      41380.90      42388.40      -0.0237677
      303.0000      40577.30      42388.40      -0.0427252
      306.0000      40224.80      42388.40      -0.0510413
      309.0000      40225.60      42388.40      -0.0510223
      312.0000      39777.60      42388.40      -0.0615911
      315.0000      40541.40      42388.40      -0.0435731
      318.0000      41179.90      42388.40      -0.0285088
      321.0000      41539.40      42388.40      -0.0200296
      324.0000      41748.90      42388.40      -0.0150866
      327.0000      39847.70      42388.40      -0.0599368
      330.0000      37178.90      42388.40      -0.1229000
      333.0000      35864.10      42388.40      -0.1539170
      336.0000      35128.90      42388.40      -0.1712620
      339.0000      34203.60      42388.40      -0.1930900
      342.0000      35697.00      42388.40      -0.1578590
      345.0000      37512.00      42388.40      -0.1150410
      348.0000      39111.20      42388.40      -0.0773124
      351.0000      40148.00      42388.40      -0.0528530
      354.0000      41680.70      42388.40      -0.0166953
      357.0000      40565.60      42388.40      -0.0430018
       18     120       19.5900     63.2000      1.00000      0.00000
      0.0000      29464.40      38169.70      -0.2280700
      3.0000      29340.30      38169.70      -0.2313200
      6.0000      30078.90      38169.70      -0.2119700
      9.0000      30164.90      38169.70      -0.2097160
      12.0000      31073.60      38169.70      -0.1859090
      15.0000      31213.30      38169.70      -0.1822480
      18.0000      32794.10      38169.70      -0.1408350
      21.0000      33965.40      38169.70      -0.1101480
      24.0000      35963.20      38169.70      -0.0578081
      27.0000      36612.00      38169.70      -0.0408106
      30.0000      37011.40      38169.70      -0.0303452
      33.0000      37288.50      38169.70      -0.0230870
      36.0000      37152.20      38169.70      -0.0266562
      39.0000      37472.10      38169.70      -0.0182754
      42.0000      38010.40      38169.70      -0.0041740
      45.0000      42835.40      38169.70      0.1222370
      48.0000      44566.60      38169.70      0.1675920
      51.0000      47391.10      38169.70      0.2415900
      54.0000      47148.60      38169.70      0.2352370
      57.0000      47520.90      38169.70      0.2449910
      60.0000      44155.90      38169.70      0.1568320
      63.0000      43469.30      38169.70      0.1388440
      66.0000      42480.70      38169.70      0.1129430
      69.0000      43016.40      38169.70      0.1269770
      72.0000      42794.80      38169.70      0.1211710
      75.0000      42100.90      38169.70      0.1029930
      78.0000      42641.10      38169.70      0.1171450
      81.0000      42363.90      38169.70      0.1098820
      84.0000      41665.90      38169.70      0.0915964
      87.0000      41160.90      38169.70      0.0783658
      90.0000      41896.70      38169.70      0.0976431
      93.0000      41880.50      38169.70      0.0972182
      96.0000      41602.00      38169.70      0.0899218
      99.0000      41769.40      38169.70      0.0943074
      102.0000      40511.90      38169.70      0.0613627
      105.0000      39454.10      38169.70      0.0336487
      108.0000      38528.60      38169.70      0.0094036
      111.0000      38408.90      38169.70      0.0062654
      114.0000      38764.60      38169.70      0.0155848
      117.0000      40130.10      38169.70      0.0513611
      120.0000      40052.90      38169.70      0.0493379
      123.0000      39098.00      38169.70      0.0243214
      126.0000      37579.50      38169.70      -0.0154623
      129.0000      36792.30      38169.70      -0.0360856
      132.0000      38635.70      38169.70      0.0122074
      135.0000      38603.50      38169.70      0.0113637
      138.0000      39068.30      38169.70      0.0235416
      141.0000      39201.30      38169.70      0.0270278
      144.0000      38901.20      38169.70      0.0191650
      147.0000      35067.60      38169.70      -0.0812709
      150.0000      34344.80      38169.70      -0.1002090
      153.0000      33434.40      38169.70      -0.1240610
      156.0000      34314.00      38169.70      -0.1010160
      159.0000      34511.50      38169.70      -0.0958401
      162.0000      35022.10      38169.70      -0.0824635
      165.0000      35454.30      38169.70      -0.0711400
      168.0000      34942.10      38169.70      -0.0845597
      171.0000      34045.40      38169.70      -0.1080510
      174.0000      32551.30      38169.70      -0.1471960
      177.0000      32698.30      38169.70      -0.1433450
      180.0000      29464.40      38169.70      -0.2280700
      183.0000      29340.30      38169.70      -0.2313200
      186.0000      30078.80      38169.70      -0.2119710
      189.0000      30164.90      38169.70      -0.2097170
      192.0000      31073.60      38169.70      -0.1859100
      195.0000      31213.40      38169.70      -0.1822470
      198.0000      32794.00      38169.70      -0.1408370
      201.0000      33965.40      38169.70      -0.1101470
      204.0000      35963.10      38169.70      -0.0578093
      207.0000      36612.00      38169.70      -0.0408091
      210.0000      37011.40      38169.70      -0.0303466
      213.0000      37288.50      38169.70      -0.0230852
      216.0000      37152.20      38169.70      -0.0266584
      219.0000      37472.20      38169.70      -0.0182748
      222.0000      38010.30      38169.70      -0.0041760
      225.0000      42835.40      38169.70      0.1222360
      228.0000      44566.60      38169.70      0.1675900
      231.0000      47391.10      38169.70      0.2415900
      234.0000      47148.60      38169.70      0.2352350
      237.0000      47520.90      38169.70      0.2449910
      240.0000      44155.90      38169.70      0.1568310
      243.0000      43469.30      38169.70      0.1388440
      246.0000      42480.70      38169.70      0.1129420
      249.0000      43016.40      38169.70      0.1269770
      252.0000      42794.80      38169.70      0.1211720
      255.0000      42100.90      38169.70      0.1029920
      258.0000      42641.10      38169.70      0.1171440
      261.0000      42363.90      38169.70      0.1098820
      264.0000      41665.90      38169.70      0.0915963
      267.0000      41160.90      38169.70      0.0783659
      270.0000      41896.70      38169.70      0.0976419
      273.0000      41880.50      38169.70      0.0972179
      276.0000      41602.00      38169.70      0.0899232
      279.0000      41769.40      38169.70      0.0943086
      282.0000      40511.90      38169.70      0.0613617
      285.0000      39454.10      38169.70      0.0336488
      288.0000      38528.60      38169.70      0.0094035
      291.0000      38408.90      38169.70      0.0062678
      294.0000      38764.50      38169.70      0.0155828
      297.0000      40130.10      38169.70      0.0513592
      300.0000      40052.90      38169.70      0.0493372
      303.0000      39098.30      38169.70      0.0243274
      306.0000      37579.50      38169.70      -0.0154620
      309.0000      36792.30      38169.70      -0.0360853
      312.0000      38635.70      38169.70      0.0122077
      315.0000      38603.70      38169.70      0.0113690
      318.0000      39068.20      38169.70      0.0235406
      321.0000      39201.40      38169.70      0.0270287
      324.0000      38901.30      38169.70      0.0191661
      327.0000      35067.80      38169.70      -0.0812664
      330.0000      34344.80      38169.70      -0.1002090
      333.0000      33434.40      38169.70      -0.1240600
      336.0000      34314.00      38169.70      -0.1010160
      339.0000      34511.50      38169.70      -0.0958409
      342.0000      35022.10      38169.70      -0.0824622
      345.0000      35454.20      38169.70      -0.0711421
      348.0000      34942.10      38169.70      -0.0845598
      351.0000      34045.40      38169.70      -0.1080510
      354.0000      32551.30      38169.70      -0.1471950
      357.0000      32698.20      38169.70      -0.1433460
       19     120       19.5900     66.2000      1.00000      0.00000
      0.0000      22727.80      31997.20      -0.2896940
      3.0000      24607.10      31997.20      -0.2309630
      6.0000      26250.50      31997.20      -0.1796020
      9.0000      26536.60      31997.20      -0.1706590
      12.0000      26705.70      31997.20      -0.1653750
      15.0000      26911.80      31997.20      -0.1589330
      18.0000      27130.90      31997.20      -0.1520870
      21.0000      27994.40      31997.20      -0.1250990
      24.0000      29833.80      31997.20      -0.0676127
      27.0000      31792.70      31997.20      -0.0063922
      30.0000      32897.50      31997.20      0.0281355
      33.0000      33111.10      31997.20      0.0348126
      36.0000      32680.70      31997.20      0.0213609
      39.0000      32818.00      31997.20      0.0256503
      42.0000      32438.30      31997.20      0.0137837
      45.0000      33973.30      31997.20      0.0617585
      48.0000      35122.30      31997.20      0.0976657
      51.0000      36723.20      31997.20      0.1477010
      54.0000      35919.70      31997.20      0.1225890
      57.0000      35945.50      31997.20      0.1233950
      60.0000      35366.60      31997.20      0.1053010
      63.0000      35938.00      31997.20      0.1231590
      66.0000      36786.70      31997.20      0.1496830
      69.0000      37896.70      31997.20      0.1843730
      72.0000      37778.30      31997.20      0.1806760
      75.0000      37452.90      31997.20      0.1705050
      78.0000      35586.80      31997.20      0.1121850
      81.0000      34205.90      31997.20      0.0690285
      84.0000      33577.20      31997.20      0.0493783
      87.0000      34010.90      31997.20      0.0629343
      90.0000      34582.70      31997.20      0.0808044
      93.0000      36129.10      31997.20      0.1291340
      96.0000      36288.60      31997.20      0.1341160
      99.0000      37362.00      31997.20      0.1676630
      102.0000      35860.50      31997.20      0.1207380
      105.0000      33917.80      31997.20      0.0600240
      108.0000      32724.10      31997.20      0.0227176
      111.0000      32549.90      31997.20      0.0172714
      114.0000      32712.40      31997.20      0.0223500
      117.0000      34042.00      31997.20      0.0639056
      120.0000      35362.60      31997.20      0.1051760
      123.0000      35553.70      31997.20      0.1111490
      126.0000      33968.60      31997.20      0.0616101
      129.0000      31762.40      31997.20      -0.0073378
      132.0000      30809.20      31997.20      -0.0371303
      135.0000      29403.10      31997.20      -0.0810735
      138.0000      29022.00      31997.20      -0.0929852
      141.0000      29587.00      31997.20      -0.0753255
      144.0000      29768.40      31997.20      -0.0696563
      147.0000      29790.70      31997.20      -0.0689612
      150.0000      28409.60      31997.20      -0.1121230
      153.0000      27415.30      31997.20      -0.1431960
      156.0000      28711.10      31997.20      -0.1026990
      159.0000      29706.70      31997.20      -0.0715843
      162.0000      29913.70      31997.20      -0.0651163
      165.0000      31268.90      31997.20      -0.0227627
      168.0000      31103.30      31997.20      -0.0279371
      171.0000      28975.90      31997.20      -0.0944246
      174.0000      26152.00      31997.20      -0.1826800
      177.0000      26259.50      31997.20      -0.1793180
      180.0000      22727.80      31997.20      -0.2896950
      183.0000      24607.10      31997.20      -0.2309620
      186.0000      26250.40      31997.20      -0.1796030
      189.0000      26536.60      31997.20      -0.1706600
      192.0000      26705.70      31997.20      -0.1653750
      195.0000      26911.80      31997.20      -0.1589320
      198.0000      27130.80      31997.20      -0.1520890
      201.0000      27994.40      31997.20      -0.1250990
      204.0000      29833.80      31997.20      -0.0676143
      207.0000      31792.70      31997.20      -0.0063918
      210.0000      32897.40      31997.20      0.0281338
      213.0000      33111.20      31997.20      0.0348137
      216.0000      32680.70      31997.20      0.0213591
      219.0000      32818.00      31997.20      0.0256513
      222.0000      32438.20      31997.20      0.0137817
      225.0000      33973.30      31997.20      0.0617581
      228.0000      35122.20      31997.20      0.0976640
      231.0000      36723.30      31997.20      0.1477010
      234.0000      35919.70      31997.20      0.1225870
      237.0000      35945.50      31997.20      0.1233950
      240.0000      35366.50      31997.20      0.1052990
      243.0000      35937.90      31997.20      0.1231570
      246.0000      36786.60      31997.20      0.1496820
      249.0000      37896.60      31997.20      0.1843730
      252.0000      37778.40      31997.20      0.1806760
      255.0000      37452.90      31997.20      0.1705040
      258.0000      35586.80      31997.20      0.1121850
      261.0000      34205.90      31997.20      0.0690281
      264.0000      33577.20      31997.20      0.0493779
      267.0000      34010.90      31997.20      0.0629344
      270.0000      34582.70      31997.20      0.0808042
      273.0000      36129.10      31997.20      0.1291340
      276.0000      36288.60      31997.20      0.1341170
      279.0000      37362.00      31997.20      0.1676650
      282.0000      35860.50      31997.20      0.1207370
      285.0000      33917.80      31997.20      0.0600236
      288.0000      32724.10      31997.20      0.0227171
      291.0000      32549.90      31997.20      0.0172734
      294.0000      32712.30      31997.20      0.0223479
      297.0000      34041.90      31997.20      0.0639025
      300.0000      35362.50      31997.20      0.1051740
      303.0000      35553.80      31997.20      0.1111540
      306.0000      33968.60      31997.20      0.0616103
      309.0000      31762.50      31997.20      -0.0073368
      312.0000      30809.20      31997.20      -0.0371290
      315.0000      29403.30      31997.20      -0.0810668
      318.0000      29021.90      31997.20      -0.0929855
      321.0000      29587.00      31997.20      -0.0753254
      324.0000      29768.40      31997.20      -0.0696561
      327.0000      29790.80      31997.20      -0.0689578
      330.0000      28409.60      31997.20      -0.1121210
      333.0000      27415.30      31997.20      -0.1431960
      336.0000      28711.10      31997.20      -0.1026990
      339.0000      29706.70      31997.20      -0.0715851
      342.0000      29913.70      31997.20      -0.0651145
      345.0000      31268.80      31997.20      -0.0227637
      348.0000      31103.30      31997.20      -0.0279360
      351.0000      28976.00      31997.20      -0.0944228
      354.0000      26152.00      31997.20      -0.1826800
      357.0000      26259.60      31997.20      -0.1793180
       20     120       19.5900     69.2000      1.00000      0.00000
      0.0000      22080.00      26414.40      -0.1640950
      3.0000      19876.40      26414.40      -0.2475180
      6.0000      22502.80      26414.40      -0.1480850
      9.0000      22174.80      26414.40      -0.1605030
      12.0000      22175.40      26414.40      -0.1604800
      15.0000      21878.70      26414.40      -0.1717120
      18.0000      21493.20      26414.40      -0.1863090
      21.0000      22345.40      26414.40      -0.1540470
      24.0000      24007.40      26414.40      -0.0911236
      27.0000      25950.80      26414.40      -0.0175502
      30.0000      27277.90      26414.40      0.0326902
      33.0000      28448.70      26414.40      0.0770143
      36.0000      28016.00      26414.40      0.0606313
      39.0000      27173.20      26414.40      0.0287273
      42.0000      26347.30      26414.40      -0.0025395
      45.0000      26072.60      26414.40      -0.0129404
      48.0000      25463.50      26414.40      -0.0360006
      51.0000      26112.00      26414.40      -0.0114475
      54.0000      26161.20      26414.40      -0.0095878
      57.0000      25714.20      26414.40      -0.0265099
      60.0000      26752.60      26414.40      0.0128027
      63.0000      28992.30      26414.40      0.0975921
      66.0000      30802.10      26414.40      0.1661100
      69.0000      33127.70      26414.40      0.2541530
      72.0000      33880.50      26414.40      0.2826500
      75.0000      32250.70      26414.40      0.2209520
      78.0000      30099.20      26414.40      0.1394980
      81.0000      28634.90      26414.40      0.0840638
      84.0000      27227.20      26414.40      0.0307696
      87.0000      27278.70      26414.40      0.0327198
      90.0000      28413.30      26414.40      0.0756750
      93.0000      30422.00      26414.40      0.1517200
      96.0000      30775.70      26414.40      0.1651090
      99.0000      31085.60      26414.40      0.1768420
      102.0000      29931.40      26414.40      0.1331480
      105.0000      28741.70      26414.40      0.0881058
      108.0000      27664.50      26414.40      0.0473243
      111.0000      27302.90      26414.40      0.0336375
      114.0000      27604.10      26414.40      0.0450403
      117.0000      30423.20      26414.40      0.1517650
      120.0000      31734.40      26414.40      0.2014030
      123.0000      31295.50      26414.40      0.1847870
      126.0000      30046.10      26414.40      0.1374880
      129.0000      28572.40      26414.40      0.0816983
      132.0000      25338.20      26414.40      -0.0407441
      135.0000      23494.30      26414.40      -0.1105520
      138.0000      22948.90      26414.40      -0.1311990
      141.0000      22339.00      26414.40      -0.1542900
      144.0000      21062.50      26414.40      -0.2026120
      147.0000      21269.10      26414.40      -0.1947940
      150.0000      22729.10      26414.40      -0.1395200
      153.0000      24488.30      26414.40      -0.0729202
      156.0000      26293.40      26414.40      -0.0045808
      159.0000      28055.80      26414.40      0.0621409
      162.0000      28291.00      26414.40      0.0710452
      165.0000      26797.70      26414.40      0.0145109
      168.0000      24309.20      26414.40      -0.0796997
      171.0000      22219.70      26414.40      -0.1588060
      174.0000      20749.30      26414.40      -0.2144720
      177.0000      20149.70      26414.40      -0.2371690
      180.0000      22080.00      26414.40      -0.1640950
      183.0000      19876.40      26414.40      -0.2475170
      186.0000      22502.80      26414.40      -0.1480860
      189.0000      22174.80      26414.40      -0.1605030
      192.0000      22175.40      26414.40      -0.1604800
      195.0000      21878.70      26414.40      -0.1717130
      198.0000      21493.10      26414.40      -0.1863100
      201.0000      22345.40      26414.40      -0.1540470
      204.0000      24007.40      26414.40      -0.0911257
      207.0000      25950.80      26414.40      -0.0175515
      210.0000      27277.90      26414.40      0.0326877
      213.0000      28448.70      26414.40      0.0770142
      216.0000      28015.90      26414.40      0.0606295
      219.0000      27173.30      26414.40      0.0287290
      222.0000      26347.30      26414.40      -0.0025412
      225.0000      26072.60      26414.40      -0.0129397
      228.0000      25463.50      26414.40      -0.0360017
      231.0000      26112.10      26414.40      -0.0114466
      234.0000      26161.10      26414.40      -0.0095901
      237.0000      25714.20      26414.40      -0.0265100
      240.0000      26752.50      26414.40      0.0128004
      243.0000      28992.20      26414.40      0.0975887
      246.0000      30802.10      26414.40      0.1661080
      249.0000      33127.70      26414.40      0.2541520
      252.0000      33880.50      26414.40      0.2826510
      255.0000      32250.70      26414.40      0.2209510
      258.0000      30099.20      26414.40      0.1394980
      261.0000      28634.90      26414.40      0.0840636
      264.0000      27227.20      26414.40      0.0307695
      267.0000      27278.70      26414.40      0.0327194
      270.0000      28413.30      26414.40      0.0756753
      273.0000      30422.00      26414.40      0.1517200
      276.0000      30775.70      26414.40      0.1651100
      279.0000      31085.60      26414.40      0.1768420
      282.0000      29931.40      26414.40      0.1331470
      285.0000      28741.70      26414.40      0.0881044
      288.0000      27664.40      26414.40      0.0473230
      291.0000      27303.00      26414.40      0.0336385
      294.0000      27604.10      26414.40      0.0450377
      297.0000      30423.10      26414.40      0.1517620
      300.0000      31734.30      26414.40      0.2014010
      303.0000      31295.60      26414.40      0.1847910
      306.0000      30046.10      26414.40      0.1374880
      309.0000      28572.50      26414.40      0.0816994
      312.0000      25338.30      26414.40      -0.0407411
      315.0000      23494.50      26414.40      -0.1105440
      318.0000      22948.90      26414.40      -0.1311990
      321.0000      22339.00      26414.40      -0.1542890
      324.0000      21062.60      26414.40      -0.2026110
      327.0000      21269.10      26414.40      -0.1947910
      330.0000      22729.10      26414.40      -0.1395180
      333.0000      24488.20      26414.40      -0.0729217
      336.0000      26293.40      26414.40      -0.0045823
      339.0000      28055.80      26414.40      0.0621400
      342.0000      28291.10      26414.40      0.0710455
      345.0000      26797.80      26414.40      0.0145122
      348.0000      24309.30      26414.40      -0.0796968
      351.0000      22219.70      26414.40      -0.1588040
      354.0000      20749.30      26414.40      -0.2144720
      357.0000      20149.80      26414.40      -0.2371680
