      19    2299    0     datakind beginning-row linenumbers
MSCD Version 1.00 Yufeng Chen and Michel A Van Hove
Lawrence Berkeley National Laboratory (LBNL), Berkeley, CA 94720
Copyright (c) Van Hove Group 1997. All rights reserved
--------------------------------------------------------------
angle-resolved photoemission extended fine structure (ARPEFS)
experimental data for Fe 2p3/2 from Fe on STO(100)  excited with hv=1810eV
provided by Pancotti et al. (LNLS in 9, June 2010)
   initial angular momentum (l) = 1
   photon polarization angle (polar, azimuth) = (  30.0,   0.0 ) (deg)
   sample temperature = 300 K
   photoemission angular scan curves
     (curve point theta phi weightc weighte//k intensity chiexp)
      19     2299       1       19     121     2299
       1     121       19.5900     15.0000      1.00000      0.00000
      0.0000      39622.10      34521.80      -0.0255618
      3.0000      43505.10      34521.80      0.0863796
      6.0000      45044.50      34521.80      0.1416684
      9.0000      41526.90      34521.80      0.0678540
      12.0000      41131.70      34521.80      0.0726698
      15.0000      43202.40      34521.80      0.1421494
      18.0000      39265.00      34521.80      0.0518666
      21.0000      35794.00      34521.80      -0.0287838
      24.0000      33716.20      34521.80      -0.0738062
      27.0000      31720.10      34521.80      -0.1182226
      30.0000      36963.30      34521.80      0.0393382
      33.0000      31457.80      34521.80      -0.1057190
      36.0000      32572.30      34521.80      -0.0642734
      39.0000      33722.30      34521.80      -0.0214884
      42.0000      34619.80      34521.80      0.0141757
      45.0000      35764.80      34521.80      0.0572423
      48.0000      32445.10      34521.80      -0.0326422
      51.0000      29963.40      34521.80      -0.0993894
      54.0000      28684.10      34521.80      -0.1312725
      57.0000      32727.50      34521.80      -0.0017482
      60.0000      26441.20      34521.80      -0.1881374
      63.0000      29159.80      34521.80      -0.0991551
      66.0000      29912.30      34521.80      -0.0706682
      69.0000      26532.10      34521.80      -0.1714070
      72.0000      26588.00      34521.80      -0.1657445
      75.0000      30946.70      34521.80      -0.0248551
      78.0000      28576.00      34521.80      -0.0961465
      81.0000      30405.80      34521.80      -0.0350643
      84.0000      36046.00      34521.80      0.1472324
      87.0000      37764.20      34521.80      0.2048632
      90.0000      34227.50      34521.80      0.0942352
      93.0000      34691.70      34521.80      0.1108574
      96.0000      34333.50      34521.80      0.1007075
      99.0000      35276.40      34521.80      0.1318475
      102.0000      35305.00      34521.80      0.1332441
      105.0000      35159.30      34521.80      0.1286262
      108.0000      32585.30      34521.80      0.0456802
      111.0000      26256.50      34521.80      -0.1579625
      114.0000      28594.50      34521.80      -0.0838839
      117.0000      24232.10      34521.80      -0.2246562
      120.0000      24975.10      34521.80      -0.2021639
      123.0000      30702.90      34521.80      -0.0210444
      126.0000      32222.80      34521.80      0.0251897
      129.0000      31313.10      34521.80      -0.0061732
      132.0000      31585.00      34521.80      -0.0002259
      135.0000      29326.20      34521.80      -0.0744240
      138.0000      30938.80      34521.80      -0.0265802
      141.0000      32984.70      34521.80      0.0343349
      144.0000      30746.40      34521.80      -0.0392452
      147.0000      26708.70      34521.80      -0.1684955
      150.0000      37746.40      34521.80      0.1706069
      153.0000      35589.80      34521.80      0.0993121
      156.0000      28518.80      34521.80      -0.1227388
      159.0000      29085.60      34521.80      -0.1091057
      162.0000      37164.40      34521.80      0.1333916
      165.0000      30452.90      34521.80      -0.0754162
      168.0000      31567.30      34521.80      -0.0459183
      171.0000      33410.60      34521.80      0.0051580
      174.0000      33443.20      34521.80      0.0014674
      177.0000      37758.10      34521.80      0.1253835
      180.0000      38089.00      34521.80      0.1298981
      183.0000      33568.20      34521.80      -0.0089168
      186.0000      44052.00      34521.80      0.2944593
      189.0000      37959.80      34521.80      0.1101732
      192.0000      37522.40      34521.80      0.0922193
      195.0000      37216.70      34521.80      0.0782583
      198.0000      38660.70      34521.80      0.1149063
      201.0000      39707.00      34521.80      0.1398357
      204.0000      34990.90      34521.80      -0.0000824
      207.0000      37330.70      34521.80      0.0620405
      210.0000      34514.30      34521.80      -0.0223661
      213.0000      36072.60      34521.80      0.0174139
      216.0000      39929.50      34521.80      0.1215078
      219.0000      33612.80      34521.80      -0.0597341
      222.0000      38455.90      34521.80      0.0715197
      225.0000      35514.80      34521.80      -0.0141849
      228.0000      36465.90      34521.80      0.0085184
      231.0000      38349.30      34521.80      0.0568931
      234.0000      36655.60      34521.80      0.0068403
      237.0000      35470.90      34521.80      -0.0287900
      240.0000      32984.10      34521.80      -0.0995820
      243.0000      32564.10      34521.80      -0.1135400
      246.0000      38586.40      34521.80      0.0476610
      249.0000      32627.50      34521.80      -0.1162556
      252.0000      33560.80      34521.80      -0.0929622
      255.0000      32737.30      34521.80      -0.1169525
      258.0000      34348.60      34521.80      -0.0750882
      261.0000      37150.50      34521.80      -0.0011230
      264.0000      34902.50      34521.80      -0.0627183
      267.0000      41532.50      34521.80      0.1142490
      270.0000      38380.20      34521.80      0.0289650
      273.0000      38023.20      34521.80      0.0189765
      276.0000      39776.60      34521.80      0.0658417
      279.0000      39777.10      34521.80      0.0660551
      282.0000      33384.80      34521.80      -0.1048138
      285.0000      42502.20      34521.80      0.1406056
      288.0000      37323.90      34521.80      0.0028061
      291.0000      39285.00      34521.80      0.0570952
      294.0000      37999.60      34521.80      0.0244258
      297.0000      31829.10      34521.80      -0.1399923
      300.0000      27778.00      34521.80      -0.2474706
      303.0000      35702.30      34521.80      -0.0298537
      306.0000      37261.10      34521.80      0.0160042
      309.0000      33638.20      34521.80      -0.0792150
      312.0000      34434.20      34521.80      -0.0533382
      315.0000      32577.70      34521.80      -0.1000766
      318.0000      34699.30      34521.80      -0.0364046
      321.0000      32150.10      34521.80      -0.1020302
      324.0000      35582.60      34521.80      0.0001097
      327.0000      32166.50      34521.80      -0.0897127
      330.0000      35187.20      34521.80      0.0031544
      333.0000      36902.80      34521.80      0.0604856
      336.0000      31025.50      34521.80      -0.1007273
      339.0000      30436.20      34521.80      -0.1096377
      342.0000      35821.50      34521.80      0.0583095
      345.0000      30771.00      34521.80      -0.0812328
      348.0000      37467.50      34521.80      0.1314368
      351.0000      36864.60      34521.80      0.1267539
      354.0000      34121.60      34521.80      0.0564331
      357.0000      41886.60      34521.80      0.3147646
      360.0000      38089.00      34521.80      0.1298981
       2     121       19.5900     18.0000      1.00000      0.00000
      0.0000      49672.00      40830.80      0.1155157
      3.0000      41365.80      40830.80      -0.0572707
      6.0000      55562.80      40830.80      0.2844206
      9.0000      46719.60      40830.80      0.0949414
      12.0000      36682.80      40830.80      -0.1288175
      15.0000      51406.40      40830.80      0.2365187
      18.0000      35514.80      40830.80      -0.1352161
      21.0000      53248.70      40830.80      0.3118863
      24.0000      40974.50      40830.80      0.0208471
      27.0000      35967.60      40830.80      -0.0942959
      30.0000      38290.80      40830.80      -0.0259914
      33.0000      29843.80      40830.80      -0.2335577
      36.0000      41550.00      40830.80      0.0767512
      39.0000      32189.30      40830.80      -0.1587293
      42.0000      38686.30      40830.80      0.0191114
      45.0000      48821.70      40830.80      0.2956203
      48.0000      47774.60      40830.80      0.2765058
      51.0000      23806.60      40830.80      -0.3599036
      54.0000      40348.80      40830.80      0.0910976
      57.0000      25888.30      40830.80      -0.2963025
      60.0000      30236.30      40830.80      -0.1742903
      63.0000      27559.80      40830.80      -0.2442806
      66.0000      28925.50      40830.80      -0.2039802
      69.0000      29882.80      40830.80      -0.1751043
      72.0000      31762.30      40830.80      -0.1209678
      75.0000      27005.30      40830.80      -0.2510692
      78.0000      28925.70      40830.80      -0.1965370
      81.0000      30632.90      40830.80      -0.1481678
      84.0000      34463.50      40830.80      -0.0410203
      87.0000      39459.10      40830.80      0.0982142
      90.0000      42046.50      40830.80      0.1699612
      93.0000      31064.80      40830.80      -0.1361665
      96.0000      42035.00      40830.80      0.1676614
      99.0000      39374.50      40830.80      0.0921860
      102.0000      45431.00      40830.80      0.2579044
      105.0000      33796.00      40830.80      -0.0662740
      108.0000      41864.50      40830.80      0.1537482
      111.0000      29581.20      40830.80      -0.1870736
      114.0000      33944.50      40830.80      -0.0700883
      117.0000      35177.20      40830.80      -0.0396174
      120.0000      31110.20      40830.80      -0.1537910
      123.0000      39717.90      40830.80      0.0760723
      126.0000      35299.50      40830.80      -0.0476429
      129.0000      30367.80      40830.80      -0.1843127
      132.0000      39886.50      40830.80      0.0664136
      135.0000      38003.00      40830.80      0.0111704
      138.0000      39031.70      40830.80      0.0333682
      141.0000      38569.00      40830.80      0.0158712
      144.0000      53205.90      40830.80      0.3939943
      147.0000      33791.80      40830.80      -0.1194408
      150.0000      41114.00      40830.80      0.0654543
      153.0000      36932.60      40830.80      -0.0482757
      156.0000      32988.00      40830.80      -0.1547637
      159.0000      32845.00      40830.80      -0.1632737
      162.0000      31341.00      40830.80      -0.2062272
      165.0000      45821.10      40830.80      0.1537223
      168.0000      35367.70      40830.80      -0.1147128
      171.0000      36882.20      40830.80      -0.0822367
      174.0000      45079.10      40830.80      0.1151317
      177.0000      42296.50      40830.80      0.0401560
      180.0000      53858.90      40830.80      0.3167582
      183.0000      57587.30      40830.80      0.3997371
      186.0000      45056.40      40830.80      0.0888530
      189.0000      47178.40      40830.80      0.1336416
      192.0000      55426.30      40830.80      0.3243415
      195.0000      46872.30      40830.80      0.1137516
      198.0000      48170.60      40830.80      0.1383697
      201.0000      43076.20      40830.80      0.0125432
      204.0000      56207.00      40830.80      0.3142917
      207.0000      46708.90      40830.80      0.0866279
      210.0000      44622.50      40830.80      0.0329372
      213.0000      42715.60      40830.80      -0.0159694
      216.0000      44380.50      40830.80      0.0176157
      219.0000      45859.40      40830.80      0.0467937
      222.0000      43116.90      40830.80      -0.0200656
      225.0000      42429.20      40830.80      -0.0396914
      228.0000      43244.30      40830.80      -0.0251112
      231.0000      43384.20      40830.80      -0.0256258
      234.0000      47408.40      40830.80      0.0609847
      237.0000      45345.70      40830.80      0.0114520
      240.0000      47189.20      40830.80      0.0493171
      243.0000      44817.60      40830.80      -0.0062633
      246.0000      38782.70      40830.80      -0.1423166
      249.0000      44069.30      40830.80      -0.0276939
      252.0000      37292.50      40830.80      -0.1789266
      255.0000      40671.40      40830.80      -0.1061532
      258.0000      44820.60      40830.80      -0.0164665
      261.0000      44247.70      40830.80      -0.0302316
      264.0000      44247.70      40830.80      -0.0311276
      267.0000      41341.00      40830.80      -0.0953251
      270.0000      45292.20      40830.80      -0.0091398
      273.0000      45481.00      40830.80      -0.0049549
      276.0000      43582.30      40830.80      -0.0461106
      279.0000      42667.00      40830.80      -0.0654311
      282.0000      45003.70      40830.80      -0.0131292
      285.0000      42592.30      40830.80      -0.0645881
      288.0000      46579.90      40830.80      0.0249497
      291.0000      43312.80      40830.80      -0.0447197
      294.0000      41210.60      40830.80      -0.0885801
      297.0000      40632.50      40830.80      -0.0984932
      300.0000      39027.70      40830.80      -0.1309356
      303.0000      40244.10      40830.80      -0.1001515
      306.0000      42569.10      40830.80      -0.0437708
      309.0000      43956.70      40830.80      -0.0075399
      312.0000      41689.00      40830.80      -0.0534180
      315.0000      42726.60      40830.80      -0.0238396
      318.0000      44109.90      40830.80      0.0145926
      321.0000      38750.50      40830.80      -0.1021116
      324.0000      41110.30      40830.80      -0.0398202
      327.0000      36883.60      40830.80      -0.1310978
      330.0000      39000.20      40830.80      -0.0726766
      333.0000      43297.80      40830.80      0.0398273
      336.0000      38691.20      40830.80      -0.0608023
      339.0000      42224.80      40830.80      0.0368013
      342.0000      41406.60      40830.80      0.0292735
      345.0000      41271.00      40830.80      0.0394595
      348.0000      43613.90      40830.80      0.1139773
      351.0000      41801.00      40830.80      0.0837660
      354.0000      44295.50      40830.80      0.1669108
      357.0000      49413.30      40830.80      0.3240613
      360.0000      53858.90      40830.80      0.3167582
       3     121       19.5900     21.0000      1.00000      0.00000
      0.0000      58164.40      44711.30      0.2234514
      3.0000      53668.60      44711.30      0.1493887
      6.0000      51764.80      44711.30      0.1281111
      9.0000      46646.70      44711.30      0.0338410
      12.0000      38753.50      44711.30      -0.1270375
      15.0000      42496.50      44711.30      -0.0276601
      18.0000      49183.80      44711.30      0.1423209
      21.0000      47633.30      44711.30      0.1222553
      24.0000      39371.20      44711.30      -0.0596664
      27.0000      24904.70      44711.30      -0.3974287
      30.0000      32079.50      44711.30      -0.2142673
      33.0000      33019.00      44711.30      -0.1818686
      36.0000      44637.80      44711.30      0.1180514
      39.0000      42206.90      44711.30      0.0678918
      42.0000      36275.90      44711.30      -0.0735340
      45.0000      29797.70      44711.30      -0.2323861
      48.0000      42379.50      44711.30      0.1003867
      51.0000      40313.10      44711.30      0.0542557
      54.0000      40313.10      44711.30      0.0610555
      57.0000      35610.90      44711.30      -0.0573493
      60.0000      39188.60      44711.30      0.0425334
      63.0000      51438.10      44711.30      0.3742555
      66.0000      26562.30      44711.30      -0.2878118
      69.0000      26562.30      44711.30      -0.2857661
      72.0000      25555.10      44711.30      -0.3113429
      75.0000      29667.40      44711.30      -0.1993054
      78.0000      43024.30      44711.30      0.1622017
      81.0000      30102.40      44711.30      -0.1866545
      84.0000      36608.50      44711.30      -0.0112278
      87.0000      41656.00      44711.30      0.1240223
      90.0000      29593.50      44711.30      -0.2026876
      93.0000      60807.00      44711.30      0.6348648
      96.0000      45951.00      44711.30      0.2322259
      99.0000      44237.60      44711.30      0.1825924
      102.0000      29740.30      44711.30      -0.2078118
      105.0000      46543.50      44711.30      0.2347622
      108.0000      42642.50      44711.30      0.1262132
      111.0000      37325.10      44711.30      -0.0190302
      114.0000      26210.10      44711.30      -0.3147740
      117.0000      30103.20      44711.30      -0.2174128
      120.0000      29497.00      44711.30      -0.2377316
      123.0000      34735.60      44711.30      -0.1079676
      126.0000      39091.50      44711.30      -0.0026672
      129.0000      34578.90      44711.30      -0.1237915
      132.0000      41594.60      44711.30      0.0465707
      135.0000      44694.50      44711.30      0.1164205
      138.0000      41757.50      44711.30      0.0353018
      141.0000      39781.20      44711.30      -0.0211967
      144.0000      45005.90      44711.30      0.0987723
      147.0000      47877.20      44711.30      0.1596650
      150.0000      40169.10      44711.30      -0.0348046
      153.0000      40169.10      44711.30      -0.0425920
      156.0000      40169.10      44711.30      -0.0503802
      159.0000      36388.60      44711.30      -0.1467923
      162.0000      38000.90      44711.30      -0.1163056
      165.0000      38946.10      44711.30      -0.1017739
      168.0000      40051.80      44711.30      -0.0838652
      171.0000      49036.40      44711.30      0.1124510
      174.0000      49036.40      44711.30      0.1033725
      177.0000      49036.40      44711.30      0.0944261
      180.0000      53746.30      44711.30      0.1898995
      183.0000      52434.10      44711.30      0.1516096
      186.0000      53692.30      44711.30      0.1699711
      189.0000      56430.20      44711.30      0.2200967
      192.0000      49170.80      44711.30      0.0550259
      195.0000      51863.30      44711.30      0.1044557
      198.0000      57733.80      44711.30      0.2204364
      201.0000      45125.00      44711.30      -0.0529588
      204.0000      50552.40      44711.30      0.0535011
      207.0000      43014.50      44711.30      -0.1097140
      210.0000      46661.80      44711.30      -0.0406384
      213.0000      53724.50      44711.30      0.0974606
      216.0000      43909.60      44711.30      -0.1086138
      219.0000      57008.90      44711.30      0.1503705
      222.0000      47892.50      44711.30      -0.0391523
      225.0000      46443.80      44711.30      -0.0733526
      228.0000      47263.60      44711.30      -0.0619510
      231.0000      48617.20      44711.30      -0.0398984
      234.0000      51790.50      44711.30      0.0179511
      237.0000      55335.80      44711.30      0.0828242
      240.0000      64871.00      44711.30      0.2641747
      243.0000      46620.20      44711.30      -0.0949562
      246.0000      54431.10      44711.30      0.0529803
      249.0000      46718.00      44711.30      -0.0990965
      252.0000      60112.20      44711.30      0.1559135
      255.0000      47671.10      44711.30      -0.0855939
      258.0000      36992.80      44711.30      -0.2919244
      261.0000      46031.50      44711.30      -0.1204545
      264.0000      47875.00      44711.30      -0.0864761
      267.0000      46906.30      44711.30      -0.1058245
      270.0000      44783.30      44711.30      -0.1467703
      273.0000      60233.90      44711.30      0.1474468
      276.0000      50634.50      44711.30      -0.0351293
      279.0000      62339.70      44711.30      0.1888131
      282.0000      54288.40      44711.30      0.0365348
      285.0000      58399.80      44711.30      0.1169262
      288.0000      39096.30      44711.30      -0.2506230
      291.0000      54831.60      44711.30      0.0538282
      294.0000      50614.90      44711.30      -0.0240627
      297.0000      34898.80      44711.30      -0.3245437
      300.0000      39474.90      44711.30      -0.2326414
      303.0000      37553.70      44711.30      -0.2663698
      306.0000      59099.90      44711.30      0.1609802
      309.0000      48717.50      44711.30      -0.0370282
      312.0000      56051.10      44711.30      0.1155562
      315.0000      51080.80      44711.30      0.0243396
      318.0000      50020.70      44711.30      0.0114122
      321.0000      56367.50      44711.30      0.1500757
      324.0000      46897.90      44711.30      -0.0336990
      327.0000      48912.90      44711.30      0.0185966
      330.0000      57915.60      44711.30      0.2200288
      333.0000      46285.50      44711.30      -0.0127883
      336.0000      38722.40      44711.30      -0.1629828
      339.0000      50725.00      44711.30      0.1123452
      342.0000      42343.90      44711.30      -0.0569876
      345.0000      46033.50      44711.30      0.0423186
      348.0000      42227.30      44711.30      -0.0267131
      351.0000      50776.60      44711.30      0.1928522
      354.0000      40363.10      44711.30      -0.0322252
      357.0000      42663.00      44711.30      0.0455396
      360.0000      53746.30      44711.30      0.1898995
       4     121       19.5900     24.0000      1.00000      0.00000
      0.0000      52008.80      42658.30      0.0931816
      3.0000      47531.30      42658.30      0.0195256
      6.0000      51216.40      42658.30      0.1204744
      9.0000      38644.60      42658.30      -0.1381786
      12.0000      43630.10      42658.30      -0.0087092
      15.0000      38509.10      42658.30      -0.1091480
      18.0000      48640.80      42658.30      0.1449895
      21.0000      38411.60      42658.30      -0.0805169
      24.0000      43078.80      42658.30      0.0479454
      27.0000      43078.80      42658.30      0.0642341
      30.0000      38770.70      42658.30      -0.0279854
      33.0000      32939.40      42658.30      -0.1625281
      36.0000      39863.00      42658.30      0.0270541
      39.0000      25668.20      42658.30      -0.3303233
      42.0000      43533.60      42658.30      0.1492472
      45.0000      30178.20      42658.30      -0.1944922
      48.0000      35121.30      42658.30      -0.0528916
      51.0000      42255.80      42658.30      0.1503523
      54.0000      41792.80      42658.30      0.1476848
      57.0000      39922.70      42658.30      0.1050408
      60.0000      36133.00      42658.30      0.0073042
      63.0000      37081.20      42658.30      0.0403292
      66.0000      35213.10      42658.30      -0.0065498
      69.0000      41854.80      42658.30      0.1865319
      72.0000      30468.40      42658.30      -0.1327433
      75.0000      32476.00      42658.30      -0.0725281
      78.0000      21485.10      42658.30      -0.3848261
      81.0000      37055.60      42658.30      0.0629802
      84.0000      27821.60      42658.30      -0.2009756
      87.0000      44122.90      42658.30      0.2678043
      90.0000      41457.20      42658.30      0.1909968
      93.0000      34262.90      42658.30      -0.0164906
      96.0000      39407.30      42658.30      0.1295508
      99.0000      49956.20      42658.30      0.4290067
      102.0000      42371.10      42658.30      0.2088764
      105.0000      46614.60      42658.30      0.3257565
      108.0000      22250.70      42658.30      -0.3694950
      111.0000      28569.00      42658.30      -0.1938278
      114.0000      31131.20      42658.30      -0.1255948
      117.0000      23074.40      42658.30      -0.3551789
      120.0000      30370.70      42658.30      -0.1559367
      123.0000      34295.90      42658.30      -0.0524438
      126.0000      32500.30      42658.30      -0.1076496
      129.0000      31976.40      42658.30      -0.1277978
      132.0000      41946.30      42658.30      0.1362831
      135.0000      38516.90      42658.30      0.0359207
      138.0000      32493.50      42658.30      -0.1325547
      141.0000      41438.10      42658.30      0.0977789
      144.0000      42177.40      42658.30      0.1085978
      147.0000      40924.60      42658.30      0.0670333
      150.0000      36878.90      42658.30      -0.0463231
      153.0000      52972.30      42658.30      0.3584454
      156.0000      39451.70      42658.30      0.0031807
      159.0000      39970.80      42658.30      0.0077104
      162.0000      27839.50      42658.30      -0.3041714
      165.0000      43339.90      42658.30      0.0738757
      168.0000      32232.10      42658.30      -0.2082906
      171.0000      47300.30      42658.30      0.1517184
      174.0000      39681.60      42658.30      -0.0421911
      177.0000      36181.10      42658.30      -0.1342580
      180.0000      48508.90      42658.30      0.1507008
      183.0000      47090.70      42658.30      0.1074772
      186.0000      45238.10      42658.30      0.0548579
      189.0000      45206.70      42658.30      0.0452505
      192.0000      46504.90      42658.30      0.0663230
      195.0000      57120.10      42658.30      0.2989793
      198.0000      45293.90      42658.30      0.0217225
      201.0000      33179.10      42658.30      -0.2574932
      204.0000      45313.00      42658.30      0.0061658
      207.0000      53970.40      42658.30      0.1892882
      210.0000      47826.00      42658.30      0.0460667
      213.0000      44026.80      42658.30      -0.0439939
      216.0000      49464.90      42658.30      0.0665429
      219.0000      36430.60      42658.30      -0.2198474
      222.0000      40047.30      42658.30      -0.1480427
      225.0000      46671.00      42658.30      -0.0134319
      228.0000      55319.40      42658.30      0.1622553
      231.0000      39397.10      42658.30      -0.1771024
      234.0000      47108.70      42658.30      -0.0215060
      237.0000      50990.30      42658.30      0.0535197
      240.0000      49487.30      42658.30      0.0173584
      243.0000      48360.70      42658.30      -0.0104686
      246.0000      43811.80      42658.30      -0.1074736
      249.0000      53523.90      42658.30      0.0859542
      252.0000      39428.00      42658.30      -0.2030195
      255.0000      42111.80      42658.30      -0.1516480
      258.0000      48857.80      42658.30      -0.0187257
      261.0000      48857.80      42658.30      -0.0213342
      264.0000      46697.70      42658.30      -0.0667356
      267.0000      45127.40      42658.30      -0.0998227
      270.0000      53171.00      42658.30      0.0590494
      273.0000      60861.80      42658.30      0.2109337
      276.0000      54846.00      42658.30      0.0905382
      279.0000      59697.80      42658.30      0.1867701
      282.0000      51737.40      42658.30      0.0287819
      285.0000      58965.80      42658.30      0.1733670
      288.0000      49042.40      42658.30      -0.0229171
      291.0000      58128.30      42658.30      0.1600896
      294.0000      51583.90      42658.30      0.0317815
      297.0000      36970.90      42658.30      -0.2584566
      300.0000      40332.40      42658.30      -0.1883383
      303.0000      50348.60      42658.30      0.0171922
      306.0000      52256.00      42658.30      0.0604884
      309.0000      45164.00      42658.30      -0.0787328
      312.0000      52242.50      42658.30      0.0718164
      315.0000      41642.90      42658.30      -0.1401320
      318.0000      49984.10      42658.30      0.0394897
      321.0000      51483.00      42658.30      0.0791100
      324.0000      42024.30      42658.30      -0.1115235
      327.0000      49615.30      42658.30      0.0588872
      330.0000      46336.50      42658.30      -0.0009041
      333.0000      44739.90      42658.30      -0.0245438
      336.0000      44525.40      42658.30      -0.0174663
      339.0000      42076.70      42658.30      -0.0593522
      342.0000      63681.30      42658.30      0.4437258
      345.0000      35798.70      42658.30      -0.1760629
      348.0000      36061.50      42658.30      -0.1564348
      351.0000      32050.50      42658.30      -0.2370749
      354.0000      51303.70      42658.30      0.2443013
      357.0000      41260.80      42658.30      0.0210309
      360.0000      48508.90      42658.30      0.1507008
       5     121       19.5900     27.0000      1.00000      0.00000
      0.0000      62377.40      41670.80      0.0835678
      3.0000      77316.20      41670.80      0.3875699
      6.0000      52008.90      41670.80      -0.0359835
      9.0000      57838.30      41670.80      0.1068602
      12.0000      37203.00      41670.80      -0.2652254
      15.0000      47925.90      41670.80      -0.0235429
      18.0000      45637.80      41670.80      -0.0412600
      21.0000      44175.90      41670.80      -0.0436450
      24.0000      46113.90      41670.80      0.0281696
      27.0000      35593.30      41670.80      -0.1831946
      30.0000      38873.10      41670.80      -0.0824889
      33.0000      19292.10      41670.80      -0.5320239
      36.0000      41206.90      41670.80      0.0264604
      39.0000      47402.80      41670.80      0.2115073
      42.0000      47107.00      41670.80      0.2341130
      45.0000      38984.20      41670.80      0.0458745
      48.0000      38080.00      41670.80      0.0451060
      51.0000      40516.00      41670.80      0.1362957
      54.0000      35840.50      41670.80      0.0260019
      57.0000      33172.40      41670.80      -0.0318369
      60.0000      26512.40      41670.80      -0.2120686
      63.0000      34345.90      41670.80      0.0380922
      66.0000      29936.90      41670.80      -0.0809709
      69.0000      29936.90      41670.80      -0.0677801
      72.0000      29936.90      41670.80      -0.0556659
      75.0000      26650.80      41670.80      -0.1495526
      78.0000      30037.00      41670.80      -0.0316801
      81.0000      21593.10      41670.80      -0.2977247
      84.0000      21593.10      41670.80      -0.2924721
      87.0000      38079.50      41670.80      0.2553532
      90.0000      36041.90      41670.80      0.1938367
      93.0000      37912.00      41670.80      0.2600917
      96.0000      36486.80      41670.80      0.2153089
      99.0000      31334.50      41670.80      0.0446008
      102.0000      32889.50      41670.80      0.0960467
      105.0000      40107.60      41670.80      0.3345297
      108.0000      28988.40      41670.80      -0.0380308
      111.0000      25011.30      41670.80      -0.1731334
      114.0000      25011.30      41670.80      -0.1770992
      117.0000      25008.60      41670.80      -0.1819382
      120.0000      14853.00      41670.80      -0.5173920
      123.0000      24956.30      41670.80      -0.1952382
      126.0000      39110.80      41670.80      0.2506609
      129.0000      27693.40      41670.80      -0.1224954
      132.0000      34646.70      41670.80      0.0870900
      135.0000      46126.30      41670.80      0.4322162
      138.0000      40058.30      41670.80      0.2301548
      141.0000      33214.40      41670.80      0.0082696
      144.0000      35074.40      41670.80      0.0520186
      147.0000      30320.60      41670.80      -0.1017915
      150.0000      32714.00      41670.80      -0.0431908
      153.0000      31349.70      41670.80      -0.0950067
      156.0000      36921.90      41670.80      0.0517328
      159.0000      36921.90      41670.80      0.0375861
      162.0000      23998.40      41670.80      -0.3347733
      165.0000      37231.30      41670.80      0.0178645
      168.0000      37231.30      41670.80      0.0038040
      171.0000      30210.50      41670.80      -0.1967721
      174.0000      45977.80      41670.80      0.2054972
      177.0000      34807.60      41670.80      -0.1000027
      180.0000      41987.40      41670.80      0.0706839
      183.0000      36733.70      41670.80      -0.0761071
      186.0000      37098.40      41670.80      -0.0795953
      189.0000      43277.40      41670.80      0.0592917
      192.0000      45758.50      41670.80      0.1051779
      195.0000      49731.70      41670.80      0.1854566
      198.0000      49731.70      41670.80      0.1702365
      201.0000      54748.00      41670.80      0.2720441
      204.0000      54881.60      41670.80      0.2594149
      207.0000      38036.40      41670.80      -0.1376712
      210.0000      45376.30      41670.80      0.0166358
      213.0000      41900.30      41670.80      -0.0719838
      216.0000      45892.30      41670.80      0.0051414
      219.0000      45892.30      41670.80      -0.0056712
      222.0000      48657.90      41670.80      0.0432955
      225.0000      50696.70      41670.80      0.0761309
      228.0000      42923.90      41670.80      -0.0976183
      231.0000      47100.40      41670.80      -0.0189254
      234.0000      60979.40      41670.80      0.2590237
      237.0000      49665.90      41670.80      0.0168938
      240.0000      38232.10      41670.80      -0.2233751
      243.0000      50685.60      41670.80      0.0219727
      246.0000      54936.20      41670.80      0.1000100
      249.0000      51988.70      41670.80      0.0343045
      252.0000      50248.50      41670.80      -0.0062241
      255.0000      51515.80      41670.80      0.0133577
      258.0000      45466.60      41670.80      -0.1099601
      261.0000      44344.70      41670.80      -0.1356332
      264.0000      41860.40      41670.80      -0.1870742
      267.0000      46105.80      41670.80      -0.1074068
      270.0000      53679.70      41670.80      0.0366345
      273.0000      55588.90      41670.80      0.0715108
      276.0000      54629.70      41670.80      0.0517539
      279.0000      61088.40      41670.80      0.1754767
      282.0000      45515.50      41670.80      -0.1240338
      285.0000      58671.20      41670.80      0.1301574
      288.0000      47926.20      41670.80      -0.0753081
      291.0000      58150.80      41670.80      0.1246719
      294.0000      46273.80      41670.80      -0.1021576
      297.0000      51048.00      41670.80      -0.0055091
      300.0000      45902.60      41670.80      -0.1013438
      303.0000      34817.50      41670.80      -0.3143837
      306.0000      50374.70      41670.80      -0.0013032
      309.0000      54932.70      41670.80      0.0975365
      312.0000      47353.30      41670.80      -0.0455463
      315.0000      32943.90      41670.80      -0.3293924
      318.0000      47036.70      41670.80      -0.0319092
      321.0000      41259.10      41670.80      -0.1403755
      324.0000      60071.30      41670.80      0.2685857
      327.0000      45277.60      41670.80      -0.0295189
      330.0000      46500.90      41670.80      0.0130710
      333.0000      45018.30      41670.80      -0.0015932
      336.0000      59208.30      41670.80      0.3389117
      339.0000      43877.50      41670.80      0.0135025
      342.0000      30272.50      41670.80      -0.2844073
      345.0000      37781.40      41670.80      -0.0841642
      348.0000      44065.80      41670.80      0.0978073
      351.0000      53855.40      41670.80      0.3822553
      354.0000      38696.30      41670.80      0.0259186
      357.0000      34727.70      41670.80      -0.0461714
      360.0000      41987.40      41670.80      0.0706839
       6     121       19.5900     30.0000      1.00000      0.00000
      0.0000      136665.00      94599.40      0.0973063
      3.0000      122784.60      94599.40      0.0187981
      6.0000      102355.30      94599.40      -0.1226768
      9.0000      107633.60      94599.40      -0.0473967
      12.0000      78515.00      94599.40      -0.2828349
      15.0000      120168.30      94599.40      0.1321988
      18.0000      79779.70      94599.40      -0.2251257
      21.0000      123659.40      94599.40      0.2373341
      24.0000      123659.40      94599.40      0.2737890
      27.0000      81294.10      94599.40      -0.1386026
      30.0000      67095.00      94599.40      -0.2692876
      33.0000      96117.00      94599.40      0.0749290
      36.0000      66836.20      94599.40      -0.2331683
      39.0000      96093.90      94599.40      0.1299332
      42.0000      56975.90      94599.40      -0.3141144
      45.0000      109045.90      94599.40      0.3424071
      48.0000      91623.50      94599.40      0.1520840
      51.0000      87847.30      94599.40      0.1268717
      54.0000      100323.90      94599.40      0.3111908
      57.0000      77311.70      94599.40      0.0281370
      60.0000      70756.20      94599.40      -0.0438463
      63.0000      72217.40      94599.40      -0.0097098
      66.0000      68279.80      94599.40      -0.0512328
      69.0000      71119.30      94599.40      -0.0000385
      72.0000      71119.30      94599.40      0.0103884
      75.0000      83136.60      94599.40      0.1917166
      78.0000      55859.10      94599.40      -0.1932659
      81.0000      80308.80      94599.40      0.1669048
      84.0000      74570.30      94599.40      0.0885822
      87.0000      72697.40      94599.40      0.0647177
      90.0000      67815.50      94599.40      -0.0048815
      93.0000      77827.00      94599.40      0.1426986
      96.0000      88768.90      94599.40      0.3024492
      99.0000      88768.90      94599.40      0.2999366
      102.0000      65732.80      94599.40      -0.0404018
      105.0000      52970.10      94599.40      -0.2299979
      108.0000      66425.00      94599.40      -0.0395403
      111.0000      79432.60      94599.40      0.1412774
      114.0000      65649.90      94599.40      -0.0636108
      117.0000      55443.80      94599.40      -0.2156365
      120.0000      57905.40      94599.40      -0.1881696
      123.0000      67736.60      94599.40      -0.0595866
      126.0000      72114.40      94599.40      -0.0092559
      129.0000      44641.50      94599.40      -0.3934808
      132.0000      96312.70      94599.40      0.2933158
      135.0000      78297.90      94599.40      0.0386320
      138.0000      84615.90      94599.40      0.1082939
      141.0000      60527.70      94599.40      -0.2175183
      144.0000      70273.10      94599.40      -0.1036540
      147.0000      76447.70      94599.40      -0.0381881
      150.0000      80354.30      94599.40      -0.0030608
      153.0000      86666.20      94599.40      0.0601292
      156.0000      76859.40      94599.40      -0.0731886
      159.0000      82513.60      94599.40      -0.0192459
      162.0000      59588.80      94599.40      -0.3019083
      165.0000      78324.30      94599.40      -0.0956266
      168.0000      85603.60      94599.40      -0.0257887
      171.0000      69905.80      94599.40      -0.2158378
      174.0000      72021.00      94599.40      -0.2036213
      177.0000      85166.90      94599.40      -0.0715706
      180.0000      92782.50      94599.40      -0.0027033
      183.0000      111103.80      94599.40      0.1777207
      186.0000      85449.10      94599.40      -0.1065667
      189.0000      111590.20      94599.40      0.1511156
      192.0000      119328.30      94599.40      0.2147356
      195.0000      103893.80      94599.40      0.0439751
      198.0000      125458.40      94599.40      0.2447679
      201.0000      100346.20      94599.40      -0.0166407
      204.0000      95593.30      94599.40      -0.0744406
      207.0000      85904.00      94599.40      -0.1779345
      210.0000      119421.40      94599.40      0.1299252
      213.0000      127284.30      94599.40      0.1911936
      216.0000      91300.70      94599.40      -0.1545379
      219.0000      97467.80      94599.40      -0.1065443
      222.0000      109232.10      94599.40      -0.0083921
      225.0000      113111.30      94599.40      0.0173398
      228.0000      106188.10      94599.40      -0.0533157
      231.0000      125984.00      94599.40      0.1138309
      234.0000      116325.60      94599.40      0.0203881
      237.0000      124104.30      94599.40      0.0806403
      240.0000      124107.70      94599.40      0.0733016
      243.0000      112004.00      94599.40      -0.0374655
      246.0000      136238.40      94599.40      0.1640716
      249.0000      123523.60      94599.40      0.0499582
      252.0000      130696.30      94599.40      0.1058059
      255.0000      87213.10      94599.40      -0.2650636
      258.0000      129043.90      94599.40      0.0837384
      261.0000      113241.50      94599.40      -0.0516119
      264.0000      109536.10      94599.40      -0.0845932
      267.0000      112548.10      94599.40      -0.0607890
      270.0000      104156.30      94599.40      -0.1314800
      273.0000      146512.40      94599.40      0.2216563
      276.0000      118224.20      94599.40      -0.0135319
      279.0000      129714.70      94599.40      0.0839291
      282.0000      127027.60      94599.40      0.0638733
      285.0000      114491.80      94599.40      -0.0381563
      288.0000      110893.10      94599.40      -0.0647123
      291.0000      116258.00      94599.40      -0.0147156
      294.0000      121080.30      94599.40      0.0320821
      297.0000      132325.80      94599.40      0.1355576
      300.0000      134105.50      94599.40      0.1597822
      303.0000      104944.40      94599.40      -0.0843764
      306.0000      121163.20      94599.40      0.0676830
      309.0000      124101.10      94599.40      0.1057902
      312.0000      98477.40      94599.40      -0.1116194
      315.0000      122063.40      94599.40      0.1163092
      318.0000      77719.60      94599.40      -0.2784410
      321.0000      95796.20      94599.40      -0.0957758
      324.0000      100163.40      94599.40      -0.0372561
      327.0000      102971.70      94599.40      0.0095530
      330.0000      98527.80      94599.40      -0.0128808
      333.0000      96277.40      94599.40      -0.0123881
      336.0000      98201.10      94599.40      0.0335967
      339.0000      87719.30      94599.40      -0.0504792
      342.0000      76374.70      94599.40      -0.1476314
      345.0000      74210.80      94599.40      -0.1437226
      348.0000      86705.10      94599.40      0.0374977
      351.0000      61718.00      94599.40      -0.2315389
      354.0000      103548.90      94599.40      0.3466971
      357.0000      85875.10      94599.40      0.1715537
      360.0000      92782.50      94599.40      -0.0027033
       7     121       19.5900     33.0000      1.00000      0.00000
      0.0000      85366.70      93787.50      -0.1054526
      3.0000      89431.40      93787.50      -0.0346726
      6.0000      88533.20      93787.50      -0.0162970
      9.0000      86647.20      93787.50      -0.0097075
      12.0000      91797.50      93787.50      0.0783084
      15.0000      80041.70      93787.50      -0.0344885
      18.0000      76064.30      93787.50      -0.0586506
      21.0000      80461.60      93787.50      0.0206136
      24.0000      69900.70      93787.50      -0.0921680
      27.0000      70130.30      93787.50      -0.0684531
      30.0000      72821.70      93787.50      -0.0118224
      33.0000      72772.60      93787.50      0.0076155
      36.0000      71542.70      93787.50      0.0094892
      39.0000      68553.00      93787.50      -0.0155138
      42.0000      66724.00      93787.50      -0.0260598
      45.0000      65481.10      93787.50      -0.0298507
      48.0000      69790.90      93787.50      0.0480613
      51.0000      79037.90      93787.50      0.2013558
      54.0000      82144.00      93787.50      0.2619339
      57.0000      54027.60      93787.50      -0.1623299
      60.0000      72740.00      93787.50      0.1365755
      63.0000      86604.20      93787.50      0.3617725
      66.0000      72210.50      93787.50      0.1409971
      69.0000      66557.70      93787.50      0.0553267
      72.0000      67502.20      93787.50      0.0725253
      75.0000      52351.60      93787.50      -0.1676030
      78.0000      51308.90      93787.50      -0.1846764
      81.0000      60190.50      93787.50      -0.0453461
      84.0000      52223.20      93787.50      -0.1742924
      87.0000      67903.60      93787.50      0.0690219
      90.0000      75826.90      93787.50      0.1872926
      93.0000      90121.10      93787.50      0.4019611
      96.0000      69541.00      93787.50      0.0737067
      99.0000      63448.50      93787.50      -0.0286226
      102.0000      73208.40      93787.50      0.1103583
      105.0000      66373.60      93787.50      -0.0035074
      108.0000      67706.70      93787.50      0.0054373
      111.0000      59887.20      93787.50      -0.1209829
      114.0000      68080.80      93787.50      -0.0129254
      117.0000      56920.30      93787.50      -0.1852904
      120.0000      92735.60      93787.50      0.3096840
      123.0000      60700.10      93787.50      -0.1545406
      126.0000      59450.20      93787.50      -0.1836750
      129.0000      70880.60      93787.50      -0.0408425
      132.0000      63567.50      93787.50      -0.1525404
      135.0000      67690.30      93787.50      -0.1111640
      138.0000      70934.40      93787.50      -0.0827797
      141.0000      86207.60      93787.50      0.0975226
      144.0000      88853.60      93787.50      0.1136328
      147.0000      87076.70      93787.50      0.0743189
      150.0000      83168.20      93787.50      0.0100304
      153.0000      74510.30      93787.50      -0.1092900
      156.0000      82192.10      93787.50      -0.0328263
      159.0000      89748.10      93787.50      0.0396309
      162.0000      75499.30      93787.50      -0.1389780
      165.0000      79164.50      93787.50      -0.1110668
      168.0000      102392.00      93787.50      0.1322262
      171.0000      74353.30      93787.50      -0.1902190
      174.0000      88032.90      93787.50      -0.0555172
      177.0000      91695.00      93787.50      -0.0306800
      180.0000      69366.80      93787.50      -0.2773215
      183.0000      100845.80      93787.50      0.0356926
      186.0000      91364.80      93787.50      -0.0747762
      189.0000      99482.50      93787.50      -0.0063536
      192.0000      99482.50      93787.50      -0.0196564
      195.0000      97368.90      93787.50      -0.0530347
      198.0000      113523.30      93787.50      0.0899903
      201.0000      102152.80      93787.50      -0.0313670
      204.0000      111326.40      93787.50      0.0428731
      207.0000      97914.90      93787.50      -0.0935065
      210.0000      103500.20      93787.50      -0.0526662
      213.0000      89504.70      93787.50      -0.1897447
      216.0000      109509.30      93787.50      -0.0191237
      219.0000      106052.90      93787.50      -0.0597342
      222.0000      130250.50      93787.50      0.1435485
      225.0000      119286.00      93787.50      0.0375248
      228.0000      144438.00      93787.50      0.2451322
      231.0000      111770.30      93787.50      -0.0446091
      234.0000      137509.20      93787.50      0.1660235
      237.0000      120534.50      93787.50      0.0144076
      240.0000      118662.40      93787.50      -0.0083711
      243.0000      132257.10      93787.50      0.0980042
      246.0000      99217.70      93787.50      -0.1812675
      249.0000      154066.00      93787.50      0.2643039
      252.0000      120580.50      93787.50      -0.0154391
      255.0000      132899.40      93787.50      0.0802988
      258.0000      124750.90      93787.50      0.0100899
      261.0000      167025.20      93787.50      0.3478448
      264.0000      125118.60      93787.50      0.0068704
      267.0000      132235.70      93787.50      0.0618254
      270.0000      130599.60      93787.50      0.0470435
      273.0000      136714.00      93787.50      0.0950339
      276.0000      123759.70      93787.50      -0.0090161
      279.0000      116369.10      93787.50      -0.0678468
      282.0000      151007.00      93787.50      0.2108975
      285.0000      99173.70      93787.50      -0.2033353
      288.0000      122569.00      93787.50      -0.0129325
      291.0000      121529.60      93787.50      -0.0181052
      294.0000      94832.60      93787.50      -0.2306948
      297.0000      103565.20      93787.50      -0.1557572
      300.0000      123346.60      93787.50      0.0112573
      303.0000      105466.70      93787.50      -0.1296090
      306.0000      96813.40      93787.50      -0.1949939
      309.0000      145304.10      93787.50      0.2184967
      312.0000      113604.00      93787.50      -0.0382535
      315.0000      103903.20      93787.50      -0.1110533
      318.0000      112191.00      93787.50      -0.0288923
      321.0000      122821.10      93787.50      0.0768464
      324.0000      110356.40      93787.50      -0.0187332
      327.0000      118646.50      93787.50      0.0713279
      330.0000      110345.60      93787.50      0.0132222
      333.0000      96188.20      93787.50      -0.1005085
      336.0000      116671.30      93787.50      0.1128898
      339.0000      93594.60      93787.50      -0.0878038
      342.0000      104819.50      93787.50      0.0457328
      345.0000      104819.50      93787.50      0.0725478
      348.0000      91268.10      93787.50      -0.0401227
      351.0000      87276.50      93787.50      -0.0543633
      354.0000      90120.80      93787.50      0.0085208
      357.0000      93997.50      93787.50      0.0894841
      360.0000      69366.80      93787.50      -0.2773215
       8     121       19.5900     36.0000      1.00000      0.00000
      0.0000      78153.40      78897.00      -0.0692602
      3.0000      83761.60      78897.00      0.0296597
      6.0000      75522.80      78897.00      -0.0422762
      9.0000      76508.90      78897.00      0.0002450
      12.0000      75717.20      78897.00      0.0197953
      15.0000      69094.60      78897.00      -0.0420328
      18.0000      64618.00      78897.00      -0.0785236
      21.0000      46041.60      78897.00      -0.3252965
      24.0000      55806.90      78897.00      -0.1604207
      27.0000      64105.50      78897.00      -0.0109195
      30.0000      61911.40      78897.00      -0.0214270
      33.0000      61908.10      78897.00      0.0012746
      36.0000      61908.10      78897.00      0.0233105
      39.0000      63970.90      78897.00      0.0793031
      42.0000      67585.10      78897.00      0.1623502
      45.0000      65512.70      78897.00      0.1469383
      48.0000      67423.60      78897.00      0.1998860
      51.0000      68521.80      78897.00      0.2377686
      54.0000      67536.20      78897.00      0.2364772
      57.0000      56180.80      78897.00      0.0409316
      60.0000      59423.90      78897.00      0.1125495
      63.0000      60691.50      78897.00      0.1464247
      66.0000      56841.20      78897.00      0.0816221
      69.0000      61751.30      78897.00      0.1819290
      72.0000      53709.60      78897.00      0.0324639
      75.0000      49904.40      78897.00      -0.0379586
      78.0000      45243.40      78897.00      -0.1266082
      81.0000      53863.90      78897.00      0.0397604
      84.0000      43841.00      78897.00      -0.1549188
      87.0000      47599.40      78897.00      -0.0849949
      90.0000      56991.40      78897.00      0.0911385
      93.0000      54869.20      78897.00      0.0450013
      96.0000      52782.90      78897.00      -0.0011635
      99.0000      56629.80      78897.00      0.0636089
      102.0000      54252.60      78897.00      0.0102864
      105.0000      46439.90      78897.00      -0.1433913
      108.0000      55253.90      78897.00      0.0086280
      111.0000      47174.20      78897.00      -0.1484920
      114.0000      52036.10      78897.00      -0.0719453
      117.0000      53605.60      78897.00      -0.0560231
      120.0000      48718.70      78897.00      -0.1534443
      123.0000      58349.40      78897.00      -0.0000942
      126.0000      60046.70      78897.00      0.0142755
      129.0000      58083.20      78897.00      -0.0333505
      132.0000      67706.50      78897.00      0.1097708
      135.0000      68300.40      78897.00      0.1022184
      138.0000      68665.80      78897.00      0.0907028
      141.0000      66880.90      78897.00      0.0454223
      144.0000      67167.10      78897.00      0.0329824
      147.0000      72089.00      78897.00      0.0906735
      150.0000      76986.90      78897.00      0.1457595
      153.0000      68125.60      78897.00      -0.0027207
      156.0000      67566.60      78897.00      -0.0271097
      159.0000      64923.30      78897.00      -0.0804640
      162.0000      65575.40      78897.00      -0.0863687
      165.0000      74310.90      78897.00      0.0185528
      168.0000      65742.60      78897.00      -0.1133939
      171.0000      67557.30      78897.00      -0.1034538
      174.0000      70053.60      78897.00      -0.0849977
      177.0000      70636.10      78897.00      -0.0917719
      180.0000      71908.40      78897.00      -0.0896273
      183.0000      73872.90      78897.00      -0.0789144
      186.0000      76787.70      78897.00      -0.0568211
      189.0000      84102.30      78897.00      0.0179305
      192.0000      78555.10      78897.00      -0.0628262
      195.0000      79460.00      78897.00      -0.0653167
      198.0000      81207.50      78897.00      -0.0578426
      201.0000      79977.80      78897.00      -0.0845058
      204.0000      68896.20      78897.00      -0.2216167
      207.0000      81127.60      78897.00      -0.0950223
      210.0000      86031.30      78897.00      -0.0521035
      213.0000      90003.60      78897.00      -0.0201292
      216.0000      90403.30      78897.00      -0.0270916
      219.0000      99490.40      78897.00      0.0588309
      222.0000      102757.60      78897.00      0.0819340
      225.0000      102435.50      78897.00      0.0674975
      228.0000      99153.00      78897.00      0.0231622
      231.0000      102708.80      78897.00      0.0499429
      234.0000      101772.80      78897.00      0.0311235
      237.0000      101330.40      78897.00      0.0179952
      240.0000      106797.50      78897.00      0.0643993
      243.0000      108198.80      78897.00      0.0703321
      246.0000      111995.30      78897.00      0.1001917
      249.0000      107262.60      78897.00      0.0469210
      252.0000      110659.60      78897.00      0.0736959
      255.0000      109931.50      78897.00      0.0609031
      258.0000      107963.10      78897.00      0.0368845
      261.0000      102727.00      78897.00      -0.0176035
      264.0000      107346.10      78897.00      0.0227919
      267.0000      112225.50      78897.00      0.0659804
      270.0000      106894.30      78897.00      0.0128224
      273.0000      113060.10      78897.00      0.0692533
      276.0000      106900.40      78897.00      0.0097686
      279.0000      114987.10      78897.00      0.0855496
      282.0000      110204.50      78897.00      0.0405262
      285.0000      107735.50      78897.00      0.0180517
      288.0000      109406.70      78897.00      0.0354428
      291.0000      101366.30      78897.00      -0.0384514
      294.0000      99139.80      78897.00      -0.0566852
      297.0000      94209.90      78897.00      -0.1001219
      300.0000      99100.70      78897.00      -0.0489506
      303.0000      96214.70      78897.00      -0.0715000
      306.0000      96948.50      78897.00      -0.0583577
      309.0000      118248.10      78897.00      0.1570455
      312.0000      98966.20      78897.00      -0.0234829
      315.0000      102252.50      78897.00      0.0184715
      318.0000      101758.30      78897.00      0.0242216
      321.0000      98608.70      78897.00      0.0041062
      324.0000      98114.40      78897.00      0.0119409
      327.0000      101677.50      78897.00      0.0635357
      330.0000      90365.30      78897.00      -0.0401288
      333.0000      84933.10      78897.00      -0.0825393
      336.0000      79190.40      78897.00      -0.1287605
      339.0000      81123.60      78897.00      -0.0895272
      342.0000      86394.90      78897.00      -0.0091378
      345.0000      84161.20      78897.00      -0.0117882
      348.0000      90837.70      78897.00      0.0941817
      351.0000      74235.60      78897.00      -0.0806803
      354.0000      77402.70      78897.00      -0.0121936
      357.0000      83934.20      78897.00      0.1067356
      360.0000      71908.40      78897.00      -0.0896273
       9     121       19.5900     39.0000      1.00000      0.00000
      0.0000      77059.80      79542.10      -0.1135079
      3.0000      75121.70      79542.10      -0.1104028
      6.0000      80076.80      79542.10      -0.0244398
      9.0000      72446.60      79542.10      -0.0925958
      12.0000      71525.90      79542.10      -0.0796037
      15.0000      67861.50      79542.10      -0.1035335
      18.0000      63163.50      79542.10      -0.1440995
      21.0000      54951.40      79542.10      -0.2368555
      24.0000      60177.40      79542.10      -0.1442750
      27.0000      75392.10      79542.10      0.0966776
      30.0000      67139.90      79542.10      -0.0019685
      33.0000      78683.10      79542.10      0.1939688
      36.0000      65348.30      79542.10      0.0111409
      39.0000      72201.00      79542.10      0.1378533
      42.0000      73096.80      79542.10      0.1718989
      45.0000      80151.70      79542.10      0.3056340
      48.0000      76740.30      79542.10      0.2685404
      51.0000      76173.80      79542.10      0.2761532
      54.0000      71391.90      79542.10      0.2105931
      57.0000      74693.10      79542.10      0.2802984
      60.0000      72657.30      79542.10      0.2572366
      63.0000      69713.80      79542.10      0.2161523
      66.0000      57671.60      79542.10      0.0129506
      69.0000      62671.30      79542.10      0.1068316
      72.0000      62520.20      79542.10      0.1088062
      75.0000      55527.30      79542.10      -0.0123368
      78.0000      53168.00      79542.10      -0.0527266
      81.0000      53168.00      79542.10      -0.0523085
      84.0000      46250.40      79542.10      -0.1762261
      87.0000      49204.40      79542.10      -0.1252709
      90.0000      51671.90      79542.10      -0.0841567
      93.0000      58562.60      79542.10      0.0337710
      96.0000      64931.90      79542.10      0.1404093
      99.0000      51642.90      79542.10      -0.0984378
      102.0000      46601.50      79542.10      -0.1920690
      105.0000      55105.10      79542.10      -0.0520488
      108.0000      46162.90      79542.10      -0.2126614
      111.0000      48381.80      79542.10      -0.1824704
      114.0000      57045.50      79542.10      -0.0456697
      117.0000      55739.90      79542.10      -0.0773726
      120.0000      57026.20      79542.10      -0.0665994
      123.0000      63219.50      79542.10      0.0227093
      126.0000      62204.30      79542.10      -0.0059096
      129.0000      67447.20      79542.10      0.0643704
      132.0000      75227.30      79542.10      0.1718400
      135.0000      75868.50      79542.10      0.1662178
      138.0000      71664.70      79542.10      0.0867513
      141.0000      70596.40      79542.10      0.0558804
      144.0000      75749.20      79542.10      0.1172143
      147.0000      72415.80      79542.10      0.0530633
      150.0000      73904.50      79542.10      0.0595168
      153.0000      73586.10      79542.10      0.0399624
      156.0000      64165.40      79542.10      -0.1060944
      159.0000      65864.70      79542.10      -0.0954957
      162.0000      73497.50      79542.10      -0.0050314
      165.0000      63324.10      79542.10      -0.1548979
      168.0000      65562.60      79542.10      -0.1373470
      171.0000      61607.30      79542.10      -0.2007186
      174.0000      70027.20      79542.10      -0.1040572
      177.0000      66186.10      79542.10      -0.1647916
      180.0000      67497.40      79542.10      -0.1597517
      183.0000      60616.80      79542.10      -0.2554513
      186.0000      80973.70      79542.10      -0.0184352
      189.0000      82361.20      79542.10      -0.0144560
      192.0000      77778.30      79542.10      -0.0810304
      195.0000      84402.70      79542.10      -0.0150672
      198.0000      76353.70      79542.10      -0.1197361
      201.0000      75442.40      79542.10      -0.1404675
      204.0000      77551.90      79542.10      -0.1265440
      207.0000      82610.40      79542.10      -0.0799133
      210.0000      82181.60      79542.10      -0.0945520
      213.0000      89678.30      79542.10      -0.0222539
      216.0000      90556.80      79542.10      -0.0226054
      219.0000      92408.60      79542.10      -0.0122730
      222.0000      102216.90      79542.10      0.0824144
      225.0000      99265.90      79542.10      0.0418207
      228.0000      99799.40      79542.10      0.0385409
      231.0000      111104.80      79542.10      0.1468771
      234.0000      113267.50      79542.10      0.1602949
      237.0000      111597.20      79542.10      0.1349872
      240.0000      115275.40      79542.10      0.1645270
      243.0000      109155.10      79542.10      0.0958167
      246.0000      107902.60      79542.10      0.0770050
      249.0000      117184.00      79542.10      0.1634893
      252.0000      107991.20      79542.10      0.0671182
      255.0000      111647.90      79542.10      0.0985817
      258.0000      110468.50      79542.10      0.0829574
      261.0000      102313.00      79542.10      -0.0001506
      264.0000      102132.80      79542.10      -0.0044891
      267.0000      104373.10      79542.10      0.0153116
      270.0000      105616.50      79542.10      0.0259655
      273.0000      110007.20      79542.10      0.0677759
      276.0000      107805.80      79542.10      0.0462489
      279.0000      106851.80      79542.10      0.0375118
      282.0000      109973.20      79542.10      0.0690794
      285.0000      96563.60      79542.10      -0.0595151
      288.0000      106489.30      79542.10      0.0398565
      291.0000      93051.60      79542.10      -0.0883137
      294.0000      93309.00      79542.10      -0.0820134
      297.0000      99744.50      79542.10      -0.0138495
      300.0000      97942.10      79542.10      -0.0260665
      303.0000      91535.70      79542.10      -0.0837046
      306.0000      93766.90      79542.10      -0.0542514
      309.0000      93766.90      79542.10      -0.0461701
      312.0000      93766.90      79542.10      -0.0370587
      315.0000      93766.90      79542.10      -0.0268409
      318.0000      93766.90      79542.10      -0.0154300
      321.0000      91603.20      79542.10      -0.0257397
      324.0000      97232.70      79542.10      0.0487625
      327.0000      90019.30      79542.10      -0.0140258
      330.0000      99349.20      79542.10      0.1065194
      333.0000      93377.80      79542.10      0.0591114
      336.0000      90294.80      79542.10      0.0445909
      339.0000      83109.90      79542.10      -0.0176805
      342.0000      79267.60      79542.10      -0.0410450
      345.0000      82965.00      79542.10      0.0293149
      348.0000      67664.50      79542.10      -0.1372513
      351.0000      71818.70      79542.10      -0.0567398
      354.0000      69359.80      79542.10      -0.0592676
      357.0000      74211.30      79542.10      0.0423050
      360.0000      67497.40      79542.10      -0.1597517
       10     121       19.5900     42.0000      1.00000      0.00000
      0.0000      63519.60      73670.50      -0.2007058
      3.0000      72421.60      73670.50      -0.0572434
      6.0000      67226.60      73670.50      -0.0951161
      9.0000      71088.80      73670.50      -0.0111426
      12.0000      59007.30      73670.50      -0.1522822
      15.0000      55833.30      73670.50      -0.1721439
      18.0000      56231.40      73670.50      -0.1401374
      21.0000      47215.10      73670.50      -0.2560198
      24.0000      56232.70      73670.50      -0.0877586
      27.0000      55183.10      73670.50      -0.0792422
      30.0000      55831.00      73670.50      -0.0428515
      33.0000      59301.20      73670.50      0.0433894
      36.0000      54757.90      73670.50      -0.0123754
      39.0000      58501.50      73670.50      0.0802572
      42.0000      66983.00      73670.50      0.2646305
      45.0000      73096.00      73670.50      0.4090549
      48.0000      73775.00      73670.50      0.4499391
      51.0000      67400.00      73670.50      0.3485113
      54.0000      69213.50      73670.50      0.4075611
      57.0000      71629.20      73670.50      0.4782865
      60.0000      62736.00      73670.50      0.3118185
      63.0000      58470.50      73670.50      0.2367108
      66.0000      47560.60      73670.50      0.0158566
      69.0000      50311.90      73670.50      0.0833933
      72.0000      45090.00      73670.50      -0.0227543
      75.0000      49112.10      73670.50      0.0695546
      78.0000      47234.80      73670.50      0.0319514
      81.0000      46224.80      73670.50      0.0114846
      84.0000      44044.80      73670.50      -0.0362010
      87.0000      44783.90      73670.50      -0.0214990
      90.0000      43290.40      73670.50      -0.0569371
      93.0000      40837.60      73670.50      -0.1142603
      96.0000      49483.90      73670.50      0.0671390
      99.0000      49002.80      73670.50      0.0493794
      102.0000      42262.90      73670.50      -0.1023656
      105.0000      42925.60      73670.50      -0.0967856
      108.0000      43289.70      73670.50      -0.0985709
      111.0000      45146.60      73670.50      -0.0705719
      114.0000      44562.60      73670.50      -0.0938306
      117.0000      39240.90      73670.50      -0.2124770
      120.0000      50517.60      73670.50      -0.0001789
      123.0000      50903.80      73670.50      -0.0071424
      126.0000      54511.50      73670.50      0.0471649
      129.0000      54511.50      73670.50      0.0307860
      132.0000      56466.10      73670.50      0.0505432
      135.0000      65929.10      73670.50      0.2063388
      138.0000      69180.80      73670.50      0.2444881
      141.0000      58816.00      73670.50      0.0398867
      144.0000      67615.10      73670.50      0.1746705
      147.0000      69596.80      73670.50      0.1878529
      150.0000      62590.20      73670.50      0.0493524
      153.0000      62037.60      73670.50      0.0215800
      156.0000      54369.60      73670.50      -0.1206626
      159.0000      56192.20      73670.50      -0.1074044
      162.0000      59347.60      73670.50      -0.0740769
      165.0000      53492.00      73670.50      -0.1802476
      168.0000      56217.80      73670.50      -0.1536828
      171.0000      52959.50      73670.50      -0.2167051
      174.0000      55122.10      73670.50      -0.1988789
      177.0000      63329.00      73670.50      -0.0954210
      180.0000      54881.60      73670.50      -0.2293929
      183.0000      61260.70      73670.50      -0.1542317
      186.0000      68291.00      73670.50      -0.0727303
      189.0000      61843.20      73670.50      -0.1739125
      192.0000      62014.20      73670.50      -0.1848397
      195.0000      60321.90      73670.50      -0.2194904
      198.0000      59635.20      73670.50      -0.2402030
      201.0000      72426.50      73670.50      -0.0910692
      204.0000      70058.40      73670.50      -0.1336675
      207.0000      71255.10      73670.50      -0.1314603
      210.0000      81853.60      73670.50      -0.0161604
      213.0000      85734.50      73670.50      0.0165375
      216.0000      83437.80      73670.50      -0.0236959
      219.0000      81172.00      73670.50      -0.0623071
      222.0000      86941.40      73670.50      -0.0080377
      225.0000      93569.10      73670.50      0.0548758
      228.0000      96346.40      73670.50      0.0737297
      231.0000      95731.20      73670.50      0.0551102
      234.0000      96254.40      73670.50      0.0496580
      237.0000      108350.20      73670.50      0.1696123
      240.0000      105033.90      73670.50      0.1228780
      243.0000      99349.90      73670.50      0.0523765
      246.0000      99648.60      73670.50      0.0463796
      249.0000      101586.00      73670.50      0.0579960
      252.0000      104565.00      73670.50      0.0806635
      255.0000      107194.70      73670.50      0.0999109
      258.0000      103281.20      73670.50      0.0527276
      261.0000      104612.90      73670.50      0.0598040
      264.0000      106448.30      73670.50      0.0724189
      267.0000      101432.40      73670.50      0.0167933
      270.0000      100346.50      73670.50      0.0014715
      273.0000      106909.20      73670.50      0.0628880
      276.0000      105448.30      73670.50      0.0449840
      279.0000      113988.90      73670.50      0.1266735
      282.0000      108166.30      73670.50      0.0670076
      285.0000      100296.50      73670.50      -0.0119407
      288.0000      90361.70      73670.50      -0.1104045
      291.0000      93603.40      73670.50      -0.0784727
      294.0000      99597.00      73670.50      -0.0187551
      297.0000      103582.30      73670.50      0.0219908
      300.0000      102482.60      73670.50      0.0133690
      303.0000      99966.80      73670.50      -0.0085609
      306.0000      101532.10      73670.50      0.0107763
      309.0000      101192.60      73670.50      0.0120531
      312.0000      103159.30      73670.50      0.0373879
      315.0000      114033.80      73670.50      0.1540780
      318.0000      106268.60      73670.50      0.0833836
      321.0000      107092.40      73670.50      0.1008717
      324.0000      107396.70      73670.50      0.1143314
      327.0000      97049.80      73670.50      0.0174889
      330.0000      104222.40      73670.50      0.1053445
      333.0000      100953.30      73670.50      0.0843628
      336.0000      96541.70      73670.50      0.0515536
      339.0000      85660.10      73670.50      -0.0525983
      342.0000      81253.00      73670.50      -0.0862101
      345.0000      80150.60      73670.50      -0.0820545
      348.0000      72903.10      73670.50      -0.1483613
      351.0000      66109.90      73670.50      -0.2109201
      354.0000      71549.10      73670.50      -0.1258101
      357.0000      70346.70      73670.50      -0.1184272
      360.0000      54881.60      73670.50      -0.2293929
       11     121       19.5900     45.0000      1.00000      0.00000
      0.0000      65053.90      72660.10      -0.2447750
      3.0000      74953.00      72660.10      -0.0991788
      6.0000      75177.80      72660.10      -0.0650181
      9.0000      75129.40      72660.10      -0.0335500
      12.0000      63323.90      72660.10      -0.1579112
      15.0000      66216.00      72660.10      -0.0902737
      18.0000      71725.70      72660.10      0.0173909
      21.0000      62966.70      72660.10      -0.0785607
      24.0000      67789.50      72660.10      0.0226044
      27.0000      61608.30      72660.10      -0.0428299
      30.0000      63016.60      72660.10      0.0073791
      33.0000      52410.30      72660.10      -0.1388194
      36.0000      60256.30      72660.10      0.0165752
      39.0000      64262.80      72660.10      0.1118465
      42.0000      61753.50      72660.10      0.0943426
      45.0000      68427.20      72660.10      0.2403846
      48.0000      68427.20      72660.10      0.2670510
      51.0000      71659.80      72660.10      0.3534897
      54.0000      64891.40      72660.10      0.2483424
      57.0000      57162.30      72660.10      0.1182945
      60.0000      61199.60      72660.10      0.2156547
      63.0000      60828.60      72660.10      0.2248577
      66.0000      49617.30      72660.10      0.0111546
      69.0000      45638.80      72660.10      -0.0602577
      72.0000      44861.40      72660.10      -0.0682101
      75.0000      55061.60      72660.10      0.1517175
      78.0000      57735.30      72660.10      0.2141623
      81.0000      55396.00      72660.10      0.1693558
      84.0000      48251.50      72660.10      0.0207496
      87.0000      51207.40      72660.10      0.0839377
      90.0000      57849.10      72660.10      0.2234142
      93.0000      55115.10      72660.10      0.1628324
      96.0000      58783.70      72660.10      0.2355550
      99.0000      48781.10      72660.10      0.0200735
      102.0000      54613.90      72660.10      0.1347568
      105.0000      45750.60      72660.10      -0.0566091
      108.0000      44968.80      72660.10      -0.0808028
      111.0000      50960.30      72660.10      0.0315058
      114.0000      49274.30      72660.10      -0.0133224
      117.0000      49753.40      72660.10      -0.0153119
      120.0000      48144.80      72660.10      -0.0590091
      123.0000      51978.50      72660.10      0.0025170
      126.0000      46636.90      72660.10      -0.1129798
      129.0000      52819.20      72660.10      -0.0099281
      132.0000      54101.50      72660.10      -0.0011023
      135.0000      58651.00      72660.10      0.0661514
      138.0000      51962.20      72660.10      -0.0704216
      141.0000      58627.70      72660.10      0.0318261
      144.0000      55640.40      72660.10      -0.0368921
      147.0000      57941.30      72660.10      -0.0138246
      150.0000      57699.20      72660.10      -0.0345267
      153.0000      52696.40      72660.10      -0.1332358
      156.0000      50436.90      72660.10      -0.1845760
      159.0000      51819.30      72660.10      -0.1765706
      162.0000      48869.50      72660.10      -0.2367353
      165.0000      49886.40      72660.10      -0.2341541
      168.0000      56601.00      72660.10      -0.1458374
      171.0000      61571.10      72660.10      -0.0865172
      174.0000      58736.60      72660.10      -0.1431538
      177.0000      54865.20      72660.10      -0.2128856
      180.0000      63571.90      72660.10      -0.1028997
      183.0000      70073.10      72660.10      -0.0271159
      186.0000      64909.80      72660.10      -0.1131230
      189.0000      64075.40      72660.10      -0.1381995
      192.0000      73067.70      72660.10      -0.0323218
      195.0000      65608.80      72660.10      -0.1441574
      198.0000      65577.20      72660.10      -0.1571410
      201.0000      73770.60      72660.10      -0.0654406
      204.0000      71537.40      72660.10      -0.1064137
      207.0000      76087.90      72660.10      -0.0625170
      210.0000      77104.70      72660.10      -0.0625590
      213.0000      79967.00      72660.10      -0.0402327
      216.0000      79553.00      72660.10      -0.0570556
      219.0000      80387.70      72660.10      -0.0585847
      222.0000      85311.20      72660.10      -0.0124644
      225.0000      91116.10      72660.10      0.0430256
      228.0000      93022.40      72660.10      0.0535218
      231.0000      96307.50      72660.10      0.0796430
      234.0000      94001.70      72660.10      0.0435966
      237.0000      100893.00      72660.10      0.1098199
      240.0000      102201.50      72660.10      0.1144635
      243.0000      93021.90      72660.10      0.0060937
      246.0000      88321.40      72660.10      -0.0520262
      249.0000      130687.60      72660.10      0.3927710
      252.0000      98232.70      72660.10      0.0400624
      255.0000      100187.20      72660.10      0.0544408
      258.0000      106445.60      72660.10      0.1142910
      261.0000      99369.70      72660.10      0.0352524
      264.0000      107462.30      72660.10      0.1149014
      267.0000      105877.70      72660.10      0.0945769
      270.0000      106144.40      72660.10      0.0941597
      273.0000      107215.40      72660.10      0.1027335
      276.0000      107433.30      72660.10      0.1032603
      279.0000      103769.30      72660.10      0.0647264
      282.0000      104906.20      72660.10      0.0762517
      285.0000      99103.20      72660.10      0.0173425
      288.0000      93085.20      72660.10      -0.0431129
      291.0000      102029.00      72660.10      0.0511127
      294.0000      99975.60      72660.10      0.0330529
      297.0000      88394.70      72660.10      -0.0830870
      300.0000      89031.90      72660.10      -0.0720904
      303.0000      90435.30      72660.10      -0.0521131
      306.0000      85607.90      72660.10      -0.0967496
      309.0000      90574.70      72660.10      -0.0370300
      312.0000      96985.50      72660.10      0.0401123
      315.0000      93349.20      72660.10      0.0109502
      318.0000      105794.00      72660.10      0.1583197
      321.0000      94261.00      72660.10      0.0446652
      324.0000      96911.80      72660.10      0.0885753
      327.0000      90426.20      72660.10      0.0308723
      330.0000      87026.40      72660.10      0.0083679
      333.0000      86143.00      72660.10      0.0160495
      336.0000      75332.10      72660.10      -0.0940231
      339.0000      71400.00      72660.10      -0.1229098
      342.0000      69730.00      72660.10      -0.1234034
      345.0000      69346.40      72660.10      -0.1060169
      348.0000      69251.10      72660.10      -0.0824621
      351.0000      68023.80      72660.10      -0.0714537
      354.0000      66474.10      72660.10      -0.0626667
      357.0000      71755.80      72660.10      0.0482568
      360.0000      63571.90      72660.10      -0.1028997
       12     121       19.5900     48.0000      1.00000      0.00000
      0.0000      74844.10      69411.30      -0.1042882
      3.0000      74006.00      69411.30      -0.0811485
      6.0000      77605.00      69411.30      -0.0007425
      9.0000      77321.00      69411.30      0.0320696
      12.0000      71341.50      69411.30      -0.0133498
      15.0000      68141.60      69411.30      -0.0241164
      18.0000      65498.80      69411.30      -0.0292504
      21.0000      69088.50      69411.30      0.0589075
      24.0000      60840.50      69411.30      -0.0364389
      27.0000      54757.90      69411.30      -0.1046603
      30.0000      55898.50      69411.30      -0.0572860
      33.0000      55215.10      69411.30      -0.0405467
      36.0000      45572.00      69411.30      -0.1849942
      39.0000      54827.20      69411.30      0.0079272
      42.0000      58394.60      69411.30      0.1020819
      45.0000      49384.10      69411.30      -0.0444819
      48.0000      54030.30      69411.30      0.0702090
      51.0000      64541.10      69411.30      0.3067249
      54.0000      47959.70      69411.30      -0.0090571
      57.0000      49661.90      69411.30      0.0454452
      60.0000      50862.20      69411.30      0.0890233
      63.0000      55417.90      69411.30      0.2047451
      66.0000      46698.00      69411.30      0.0288928
      69.0000      47173.20      69411.30      0.0514938
      72.0000      34467.60      69411.30      -0.2241666
      75.0000      44331.00      69411.30      0.0058098
      78.0000      44672.80      69411.30      0.0197895
      81.0000      45786.60      69411.30      0.0497375
      84.0000      38858.70      69411.30      -0.1068303
      87.0000      43620.20      69411.30      0.0034183
      90.0000      55203.20      69411.30      0.2687423
      93.0000      55853.40      69411.30      0.2804551
      96.0000      67920.30      69411.30      0.5507384
      99.0000      66521.80      69411.30      0.5103464
      102.0000      52044.70      69411.30      0.1733980
      105.0000      49612.40      69411.30      0.1092590
      108.0000      49289.10      69411.30      0.0914948
      111.0000      48505.50      69411.30      0.0626288
      114.0000      46849.30      69411.30      0.0142460
      117.0000      40881.60      69411.30      -0.1262528
      120.0000      43779.60      69411.30      -0.0771025
      123.0000      52435.50      69411.30      0.0893679
      126.0000      47716.80      69411.30      -0.0237334
      129.0000      45513.40      69411.30      -0.0835672
      132.0000      45418.10      69411.30      -0.1004915
      135.0000      55627.30      69411.30      0.0830869
      138.0000      52707.90      69411.30      0.0084766
      141.0000      47358.60      69411.30      -0.1098775
      144.0000      48948.60      69411.30      -0.0965030
      147.0000      52374.80      69411.30      -0.0508257
      150.0000      51247.50      69411.30      -0.0882818
      153.0000      51705.80      69411.30      -0.0970940
      156.0000      48616.20      69411.30      -0.1667545
      159.0000      58336.40      69411.30      -0.0186714
      162.0000      47353.70      69411.30      -0.2181469
      165.0000      52812.00      69411.30      -0.1440827
      168.0000      53439.40      69411.30      -0.1497688
      171.0000      54468.80      69411.30      -0.1491297
      174.0000      60915.90      69411.30      -0.0655320
      177.0000      51253.70      69411.30      -0.2277309
      180.0000      58675.20      69411.30      -0.1314170
      183.0000      61433.10      69411.30      -0.1063086
      186.0000      67275.60      69411.30      -0.0379521
      189.0000      76135.60      69411.30      0.0705727
      192.0000      69285.50      69411.30      -0.0416937
      195.0000      66312.10      69411.30      -0.0975128
      198.0000      67196.70      69411.30      -0.0997917
      201.0000      62867.20      69411.30      -0.1706578
      204.0000      73007.40      69411.30      -0.0512195
      207.0000      74511.00      69411.30      -0.0456900
      210.0000      84148.60      69411.30      0.0626084
      213.0000      77597.40      69411.30      -0.0334517
      216.0000      78112.60      69411.30      -0.0398350
      219.0000      80867.80      69411.30      -0.0185860
      222.0000      77091.10      69411.30      -0.0758523
      225.0000      80434.90      69411.30      -0.0470816
      228.0000      88424.90      69411.30      0.0358056
      231.0000      90672.30      69411.30      0.0507368
      234.0000      84017.50      69411.30      -0.0363204
      237.0000      87597.60      69411.30      -0.0049808
      240.0000      97257.40      69411.30      0.0946514
      243.0000      93548.20      69411.30      0.0438665
      246.0000      93549.80      69411.30      0.0355146
      249.0000      98453.80      69411.30      0.0816888
      252.0000      103453.60      69411.30      0.1288336
      255.0000      96550.60      69411.30      0.0469294
      258.0000      102859.50      69411.30      0.1090584
      261.0000      106798.00      69411.30      0.1457669
      264.0000      109315.50      69411.30      0.1676701
      267.0000      110287.90      69411.30      0.1737092
      270.0000      103391.00      69411.30      0.0969982
      273.0000      105539.50      69411.30      0.1172050
      276.0000      107430.10      69411.30      0.1354053
      279.0000      104107.40      69411.30      0.0993476
      282.0000      103724.80      69411.30      0.0952052
      285.0000      99112.40      69411.30      0.0472292
      288.0000      96054.10      69411.30      0.0164430
      291.0000      99989.70      69411.30      0.0605724
      294.0000      96976.10      69411.30      0.0319186
      297.0000      90920.60      69411.30      -0.0285275
      300.0000      85581.70      69411.30      -0.0809397
      303.0000      86505.40      69411.30      -0.0654009
      306.0000      84143.00      69411.30      -0.0844929
      309.0000      85986.80      69411.30      -0.0568085
      312.0000      82707.50      69411.30      -0.0843654
      315.0000      87724.10      69411.30      -0.0186710
      318.0000      77781.80      69411.30      -0.1197053
      321.0000      77347.00      69411.30      -0.1132244
      324.0000      79648.20      69411.30      -0.0736716
      327.0000      78500.40      69411.30      -0.0724977
      330.0000      80766.70      69411.30      -0.0290300
      333.0000      75257.00      69411.30      -0.0779108
      336.0000      73608.60      69411.30      -0.0791666
      339.0000      72385.70      69411.30      -0.0736735
      342.0000      65824.00      69411.30      -0.1365183
      345.0000      72688.70      69411.30      -0.0203568
      348.0000      81030.50      69411.30      0.1247177
      351.0000      76376.50      69411.30      0.0947406
      354.0000      73209.40      69411.30      0.0868127
      357.0000      71765.50      69411.30      0.1070251
      360.0000      58675.20      69411.30      -0.1314170
       13     121       19.5900     51.0000      1.00000      0.00000
      0.0000      65525.40      60126.20      -0.1497769
      3.0000      75728.40      60126.20      0.0224101
      6.0000      83143.10      60126.20      0.1677179
      9.0000      79188.50      60126.20      0.1566307
      12.0000      67172.70      60126.20      0.0199828
      15.0000      59806.20      60126.20      -0.0563101
      18.0000      57219.20      60126.20      -0.0622426
      21.0000      52643.90      60126.20      -0.1044088
      24.0000      46072.20      60126.20      -0.1869373
      27.0000      43476.40      60126.20      -0.2046956
      30.0000      42256.00      60126.20      -0.1994405
      33.0000      52328.40      60126.20      0.0257860
      36.0000      45671.80      60126.20      -0.0746055
      39.0000      44844.80      60126.20      -0.0618944
      42.0000      47963.20      60126.20      0.0345834
      45.0000      45644.00      60126.20      0.0138445
      48.0000      43078.20      60126.20      -0.0161152
      51.0000      39640.10      60126.20      -0.0705056
      54.0000      38978.40      60126.20      -0.0632001
      57.0000      39152.30      60126.20      -0.0371955
      60.0000      42900.80      60126.20      0.0774974
      63.0000      43970.70      60126.20      0.1258092
      66.0000      40091.60      60126.20      0.0443807
      69.0000      45337.90      60126.20      0.1992288
      72.0000      37538.30      60126.20      0.0061547
      75.0000      31628.60      60126.20      -0.1427199
      78.0000      41052.50      60126.20      0.1228785
      81.0000      39060.70      60126.20      0.0759255
      84.0000      37250.80      60126.20      0.0311749
      87.0000      42372.30      60126.20      0.1763910
      90.0000      48054.00      60126.20      0.3353926
      93.0000      46922.10      60126.20      0.3026488
      96.0000      58435.60      60126.20      0.6176602
      99.0000      59153.80      60126.20      0.6299516
      102.0000      67027.60      60126.20      0.8352159
      105.0000      43223.10      60126.20      0.1740585
      108.0000      36966.10      60126.20      -0.0053760
      111.0000      46559.60      60126.20      0.2391710
      114.0000      32154.00      60126.20      -0.1546159
      117.0000      29498.30      60126.20      -0.2347747
      120.0000      35715.30      60126.20      -0.0868503
      123.0000      47028.90      60126.20      0.1839010
      126.0000      39147.20      60126.20      -0.0305477
      129.0000      38944.50      60126.20      -0.0520120
      132.0000      40995.50      60126.20      -0.0197842
      135.0000      29798.00      60126.20      -0.3005773
      138.0000      45698.90      60126.20      0.0524522
      141.0000      38565.70      60126.20      -0.1289252
      144.0000      39467.60      60126.20      -0.1260217
      147.0000      41196.10      60126.20      -0.1058662
      150.0000      45702.20      60126.20      -0.0279666
      153.0000      42106.70      60126.20      -0.1225291
      156.0000      40917.70      60126.20      -0.1645965
      159.0000      39716.10      60126.20      -0.2055875
      162.0000      43297.50      60126.20      -0.1515033
      165.0000      45639.50      60126.20      -0.1236642
      168.0000      34419.80      60126.20      -0.3523591
      171.0000      46751.10      60126.20      -0.1378446
      174.0000      47095.90      60126.20      -0.1486020
      177.0000      53131.00      60126.20      -0.0582052
      180.0000      54218.40      60126.20      -0.0573933
      183.0000      54681.50      60126.20      -0.0673276
      186.0000      65642.60      60126.20      0.0988043
      189.0000      65263.00      60126.20      0.0725043
      192.0000      60611.40      60126.20      -0.0217607
      195.0000      57525.10      60126.20      -0.0878267
      198.0000      56371.40      60126.20      -0.1214093
      201.0000      62273.00      60126.20      -0.0456193
      204.0000      55419.80      60126.20      -0.1644463
      207.0000      62171.00      60126.20      -0.0774606
      210.0000      58604.00      60126.20      -0.1437152
      213.0000      65546.00      60126.20      -0.0564972
      216.0000      67657.90      60126.20      -0.0400707
      219.0000      61381.50      60126.20      -0.1411745
      222.0000      68375.70      60126.20      -0.0560609
      225.0000      77253.80      60126.20      0.0528579
      228.0000      68472.40      60126.20      -0.0782545
      231.0000      75520.40      60126.20      0.0047266
      234.0000      79645.30      60126.20      0.0478020
      237.0000      79178.70      60126.20      0.0306588
      240.0000      80886.60      60126.20      0.0423834
      243.0000      83115.30      60126.20      0.0610553
      246.0000      82768.10      60126.20      0.0473527
      249.0000      86716.10      60126.20      0.0883652
      252.0000      84285.10      60126.20      0.0499004
      255.0000      86103.00      60126.20      0.0651753
      258.0000      90834.80      60126.20      0.1167339
      261.0000      90628.20      60126.20      0.1080282
      264.0000      88690.00      60126.20      0.0790817
      267.0000      78804.80      60126.20      -0.0451529
      270.0000      90443.90      60126.20      0.0921415
      273.0000      93097.10      60126.20      0.1211903
      276.0000      102673.50      60126.20      0.2341816
      279.0000      102326.00      60126.20      0.2286483
      282.0000      99919.10      60126.20      0.1994017
      285.0000      93137.60      60126.20      0.1186145
      288.0000      91213.70      60126.20      0.0970627
      291.0000      91252.00      60126.20      0.1000678
      294.0000      81031.70      60126.20      -0.0199651
      297.0000      78667.10      60126.20      -0.0445486
      300.0000      79512.00      60126.20      -0.0292371
      303.0000      80870.10      60126.20      -0.0064537
      306.0000      80520.30      60126.20      -0.0034478
      309.0000      76183.00      60126.20      -0.0490792
      312.0000      67953.80      60126.20      -0.1435278
      315.0000      73973.30      60126.20      -0.0573805
      318.0000      64834.50      60126.20      -0.1636112
      321.0000      71075.90      60126.20      -0.0704409
      324.0000      68857.40      60126.20      -0.0856616
      327.0000      60748.20      60126.20      -0.1796821
      330.0000      71127.40      60126.20      -0.0216024
      333.0000      65929.60      60126.20      -0.0744958
      336.0000      65050.10      60126.20      -0.0662840
      339.0000      66302.10      60126.20      -0.0248307
      342.0000      62412.50      60126.20      -0.0572324
      345.0000      62097.40      60126.20      -0.0342376
      348.0000      66724.40      60126.20      0.0713514
      351.0000      57626.90      60126.20      -0.0418582
      354.0000      65052.80      60126.20      0.1237660
      357.0000      61824.20      60126.20      0.1137546
      360.0000      54218.40      60126.20      -0.0573933
       14     121       19.5900     54.0000      1.00000      0.00000
      0.0000      65932.60      53859.20      -0.0805094
      3.0000      73948.10      53859.20      0.0777914
      6.0000      75430.10      53859.20      0.1488538
      9.0000      67341.70      53859.20      0.0716140
      12.0000      63525.20      53859.20      0.0559021
      15.0000      53342.30      53859.20      -0.0741815
      18.0000      49202.80      53859.20      -0.1086778
      21.0000      46964.20      53859.20      -0.1124872
      24.0000      44689.30      53859.20      -0.1195579
      27.0000      38116.10      53859.20      -0.2176998
      30.0000      33896.20      53859.20      -0.2758800
      33.0000      44708.80      53859.20      -0.0068392
      36.0000      36134.70      53859.20      -0.1662535
      39.0000      34752.90      53859.20      -0.1681580
      42.0000      43346.10      53859.20      0.0748238
      45.0000      41272.00      53859.20      0.0585624
      48.0000      38393.10      53859.20      0.0168650
      51.0000      39166.10      53859.20      0.0692642
      54.0000      37826.30      53859.20      0.0624057
      57.0000      41334.50      53859.20      0.1918816
      60.0000      27171.90      53859.20      -0.1973704
      63.0000      36799.20      53859.20      0.1109970
      66.0000      38982.90      53859.20      0.2000314
      69.0000      31384.20      53859.20      -0.0173356
      72.0000      29986.50      53859.20      -0.0474181
      75.0000      37489.00      53859.20      0.2051830
      78.0000      33404.80      53859.20      0.0839604
      81.0000      29711.70      53859.20      -0.0293290
      84.0000      25299.00      53859.20      -0.1699895
      87.0000      32971.70      53859.20      0.0836095
      90.0000      43423.40      53859.20      0.4261018
      93.0000      44900.00      53859.20      0.4701052
      96.0000      45853.60      53859.20      0.4933929
      99.0000      45980.10      53859.20      0.4864192
      102.0000      40446.60      53859.20      0.2952396
      105.0000      41736.70      53859.20      0.3214979
      108.0000      35451.90      53859.20      0.1079291
      111.0000      36726.10      53859.20      0.1310377
      114.0000      36726.10      53859.20      0.1129490
      117.0000      32881.90      53859.20      -0.0207663
      120.0000      36469.10      53859.20      0.0660456
      123.0000      33341.20      53859.20      -0.0443352
      126.0000      31856.30      53859.20      -0.1054524
      129.0000      34500.50      53859.20      -0.0516189
      132.0000      36922.90      53859.20      -0.0070648
      135.0000      37642.30      53859.20      -0.0102245
      138.0000      39264.80      53859.20      0.0090526
      141.0000      44723.10      53859.20      0.1229230
      144.0000      37208.60      53859.20      -0.0874280
      147.0000      41037.00      53859.20      -0.0170297
      150.0000      36443.10      53859.20      -0.1475075
      153.0000      35085.10      53859.20      -0.1984896
      156.0000      38762.10      53859.20      -0.1351627
      159.0000      42192.50      53859.20      -0.0804855
      162.0000      42458.00      53859.20      -0.0960210
      165.0000      36322.20      53859.20      -0.2443038
      168.0000      34823.90      53859.20      -0.2918112
      171.0000      40744.90      53859.20      -0.1898239
      174.0000      45586.10      53859.20      -0.1134016
      177.0000      43757.90      53859.20      -0.1672635
      180.0000      43162.10      53859.20      -0.1959342
      183.0000      59954.00      53859.20      0.0938003
      186.0000      60977.50      53859.20      0.0899939
      189.0000      55295.60      53859.20      -0.0310690
      192.0000      59010.80      53859.20      0.0141536
      195.0000      52798.20      53859.20      -0.1095873
      198.0000      55610.10      53859.20      -0.0792042
      201.0000      67018.00      53859.20      0.0901411
      204.0000      54276.10      53859.20      -0.1321755
      207.0000      48779.00      53859.20      -0.2329133
      210.0000      54784.90      53859.20      -0.1521431
      213.0000      57451.90      53859.20      -0.1244453
      216.0000      66268.10      53859.20      -0.0048861
      219.0000      60423.20      53859.20      -0.1053805
      222.0000      68965.50      53859.20      0.0074300
      225.0000      68965.50      53859.20      -0.0053967
      228.0000      68965.50      53859.20      -0.0174006
      231.0000      72208.60      53859.20      0.0170835
      234.0000      68456.00      53859.20      -0.0460977
      237.0000      75278.10      53859.20      0.0384665
      240.0000      79456.30      53859.20      0.0859152
      243.0000      66613.00      53859.20      -0.0974144
      246.0000      77487.80      53859.20      0.0417144
      249.0000      82736.50      53859.20      0.1044068
      252.0000      81268.40      53859.20      0.0779728
      255.0000      78016.20      53859.20      0.0291296
      258.0000      78512.20      53859.20      0.0308004
      261.0000      86790.30      53859.20      0.1350695
      264.0000      81449.00      53859.20      0.0619935
      267.0000      86342.90      53859.20      0.1233852
      270.0000      87477.80      53859.20      0.1367319
      273.0000      93160.90      53859.20      0.2101973
      276.0000      94559.20      53859.20      0.2291527
      279.0000      98745.90      53859.20      0.2856780
      282.0000      91107.40      53859.20      0.1893923
      285.0000      88804.80      53859.20      0.1636721
      288.0000      83026.40      53859.20      0.0932420
      291.0000      76278.90      53859.20      0.0104492
      294.0000      70716.60      53859.20      -0.0564426
      297.0000      69040.60      53859.20      -0.0709467
      300.0000      71076.30      53859.20      -0.0341041
      303.0000      65032.00      53859.20      -0.1062550
      306.0000      66221.80      53859.20      -0.0782464
      309.0000      55598.00      53859.20      -0.2149713
      312.0000      56332.90      53859.20      -0.1917794
      315.0000      61068.70      53859.20      -0.1081211
      318.0000      63022.30      53859.20      -0.0612834
      321.0000      64120.80      53859.20      -0.0239121
      324.0000      60812.70      53859.20      -0.0517937
      327.0000      61641.50      53859.20      -0.0131483
      330.0000      59738.70      53859.20      -0.0154183
      333.0000      55237.90      53859.20      -0.0600416
      336.0000      54786.30      53859.20      -0.0343777
      339.0000      51289.90      53859.20      -0.0603350
      342.0000      50484.60      53859.20      -0.0347688
      345.0000      44335.20      53859.20      -0.1114163
      348.0000      44280.30      53859.20      -0.0649113
      351.0000      54156.50      53859.20      0.2120864
      354.0000      55460.40      53859.20      0.3245641
      357.0000      32378.80      53859.20      -0.1681231
      360.0000      43162.10      53859.20      -0.1959342
       15     121       19.5900     57.0000      1.00000      0.00000
      0.0000      51208.20      45636.10      -0.0786792
      3.0000      51230.20      45636.10      -0.0462884
      6.0000      55796.70      45636.10      0.0743652
      9.0000      55796.70      45636.10      0.1107428
      12.0000      46992.50      45636.10      -0.0333275
      15.0000      45821.90      45636.10      -0.0265178
      18.0000      46152.50      45636.10      0.0120118
      21.0000      40087.30      45636.10      -0.0933578
      24.0000      38935.00      45636.10      -0.0924245
      27.0000      36347.20      45636.10      -0.1274859
      30.0000      35972.80      45636.10      -0.1115145
      33.0000      37082.30      45636.10      -0.0585373
      36.0000      31137.40      45636.10      -0.1882261
      39.0000      34318.80      45636.10      -0.0822434
      42.0000      36600.70      45636.10      0.0028246
      45.0000      37101.60      45636.10      0.0402505
      48.0000      41441.70      45636.10      0.1875049
      51.0000      39072.70      45636.10      0.1427245
      54.0000      37499.00      45636.10      0.1177706
      57.0000      35228.60      45636.10      0.0687275
      60.0000      37272.30      45636.10      0.1490841
      63.0000      37574.20      45636.10      0.1754100
      66.0000      29081.50      45636.10      -0.0783244
      69.0000      23896.00      45636.10      -0.2339330
      72.0000      32642.30      45636.10      0.0568554
      75.0000      33727.60      45636.10      0.1010945
      78.0000      33860.60      45636.10      0.1128863
      81.0000      30307.00      45636.10      0.0012303
      84.0000      32664.60      45636.10      0.0830035
      87.0000      36375.90      45636.10      0.2085550
      90.0000      34885.50      45636.10      0.1597165
      93.0000      29994.10      45636.10      -0.0037480
      96.0000      35706.70      45636.10      0.1833219
      99.0000      40228.60      45636.10      0.3283870
      102.0000      34047.50      45636.10      0.1188030
      105.0000      29329.70      45636.10      -0.0420911
      108.0000      35039.30      45636.10      0.1361046
      111.0000      35618.70      45636.10      0.1452893
      114.0000      26565.20      45636.10      -0.1537807
      117.0000      33361.40      45636.10      0.0518076
      120.0000      33927.40      45636.10      0.0577560
      123.0000      35602.90      45636.10      0.0967685
      126.0000      27086.10      45636.10      -0.1761402
      129.0000      32433.60      45636.10      -0.0265981
      132.0000      38161.80      45636.10      0.1294282
      135.0000      37835.10      45636.10      0.1036432
      138.0000      38736.30      45636.10      0.1131536
      141.0000      39371.30      45636.10      0.1141555
      144.0000      37054.10      45636.10      0.0322455
      147.0000      37816.70      45636.10      0.0367813
      150.0000      33584.40      45636.10      -0.0940645
      153.0000      31756.80      45636.10      -0.1572979
      156.0000      31548.40      45636.10      -0.1765548
      159.0000      35066.20      45636.10      -0.0998223
      162.0000      32167.20      45636.10      -0.1878885
      165.0000      36066.00      45636.10      -0.1045089
      168.0000      36276.50      45636.10      -0.1141422
      171.0000      35376.20      45636.10      -0.1503210
      174.0000      37872.20      45636.10      -0.1052262
      177.0000      40411.70      45636.10      -0.0606957
      180.0000      37972.90      45636.10      -0.1315412
      183.0000      41430.40      45636.10      -0.0674924
      186.0000      38177.30      45636.10      -0.1541592
      189.0000      41875.00      45636.10      -0.0865371
      192.0000      46480.20      45636.10      -0.0014524
      195.0000      42972.10      45636.10      -0.0905623
      198.0000      44057.20      45636.10      -0.0812063
      201.0000      43680.00      45636.10      -0.1020845
      204.0000      41644.30      45636.10      -0.1558795
      207.0000      40446.20      45636.10      -0.1913252
      210.0000      44812.10      45636.10      -0.1159099
      213.0000      45877.80      45636.10      -0.1065447
      216.0000      49319.00      45636.10      -0.0515304
      219.0000      44712.60      45636.10      -0.1505192
      222.0000      52208.10      45636.10      -0.0197045
      225.0000      53169.00      45636.10      -0.0129040
      228.0000      57023.80      45636.10      0.0472015
      231.0000      59331.80      45636.10      0.0782794
      234.0000      61228.30      45636.10      0.1017093
      237.0000      64101.60      45636.10      0.1425128
      240.0000      56961.50      45636.10      0.0061488
      243.0000      60393.10      45636.10      0.0577253
      246.0000      62288.50      45636.10      0.0822293
      249.0000      62625.40      45636.10      0.0799757
      252.0000      62012.50      45636.10      0.0620038
      255.0000      67177.30      45636.10      0.1431138
      258.0000      67424.00      45636.10      0.1406270
      261.0000      64811.90      45636.10      0.0906717
      264.0000      63909.80      45636.10      0.0704607
      267.0000      70724.80      45636.10      0.1797748
      270.0000      70614.60      45636.10      0.1738503
      273.0000      62626.50      45636.10      0.0381038
      276.0000      69088.20      45636.10      0.1426992
      279.0000      70532.80      45636.10      0.1648055
      282.0000      68176.80      45636.10      0.1249424
      285.0000      65146.20      45636.10      0.0747814
      288.0000      63557.00      45636.10      0.0491736
      291.0000      68781.20      45636.10      0.1369266
      294.0000      57782.40      45636.10      -0.0428639
      297.0000      52067.00      45636.10      -0.1350227
      300.0000      54673.50      45636.10      -0.0883157
      303.0000      55347.30      45636.10      -0.0728186
      306.0000      56064.60      45636.10      -0.0556174
      309.0000      54592.50      45636.10      -0.0744714
      312.0000      52176.30      45636.10      -0.1088472
      315.0000      49679.60      45636.10      -0.1442973
      318.0000      55724.50      45636.10      -0.0310037
      321.0000      56285.10      45636.10      -0.0107888
      324.0000      64011.60      45636.10      0.1383825
      327.0000      52133.20      45636.10      -0.0606651
      330.0000      46466.40      45636.10      -0.1506323
      333.0000      46845.60      45636.10      -0.1300683
      336.0000      44592.50      45636.10      -0.1574696
      339.0000      47728.10      45636.10      -0.0810401
      342.0000      46521.50      45636.10      -0.0856449
      345.0000      45912.40      45636.10      -0.0771630
      348.0000      47883.00      45636.10      -0.0137940
      351.0000      52056.30      45636.10      0.1009795
      354.0000      50368.50      45636.10      0.0964637
      357.0000      55891.30      45636.10      0.2554864
      360.0000      37972.90      45636.10      -0.1315412
       16     121       19.5900     60.0000      1.00000      0.00000
      0.0000      45058.20      42405.20      -0.1004579
      3.0000      43840.90      42405.20      -0.0910155
      6.0000      42229.30      42405.20      -0.0910226
      9.0000      36962.70      42405.20      -0.1744031
      12.0000      35003.80      42405.20      -0.1891208
      15.0000      36816.10      42405.20      -0.1159976
      18.0000      40651.20      42405.20      0.0110365
      21.0000      39853.80      42405.20      0.0259059
      24.0000      35702.40      42405.20      -0.0495962
      27.0000      39545.30      42405.20      0.0875974
      30.0000      33728.70      42405.20      -0.0426181
      33.0000      31966.80      42405.20      -0.0645805
      36.0000      29975.30      42405.20      -0.0968471
      39.0000      29207.70      42405.20      -0.0950715
      42.0000      36311.50      42405.20      0.1552329
      45.0000      33541.80      42405.20      0.0941360
      48.0000      38420.40      42405.20      0.2829841
      51.0000      37746.50      42405.20      0.2882246
      54.0000      35607.50      42405.20      0.2398296
      57.0000      36005.60      42405.20      0.2767882
      60.0000      36992.00      42405.20      0.3334728
      63.0000      33055.40      42405.20      0.2090005
      66.0000      28508.30      42405.20      0.0559152
      69.0000      28560.80      42405.20      0.0691992
      72.0000      31247.50      42405.20      0.1800137
      75.0000      24682.20      42405.20      -0.0615878
      78.0000      24682.20      42405.20      -0.0570403
      81.0000      30476.10      42405.20      0.1677279
      84.0000      33648.20      42405.20      0.2906480
      87.0000      24995.80      42405.20      -0.0419476
      90.0000      26492.60      42405.20      0.0128886
      93.0000      32433.60      42405.20      0.2348544
      96.0000      31596.10      42405.20      0.1960227
      99.0000      28438.20      42405.20      0.0686398
      102.0000      26846.10      42405.20      0.0000228
      105.0000      35086.90      42405.20      0.2938660
      108.0000      32859.30      42405.20      0.1980514
      111.0000      35740.80      42405.20      0.2869248
      114.0000      25847.10      42405.20      -0.0818507
      117.0000      25564.60      42405.20      -0.1049742
      120.0000      30904.40      42405.20      0.0654560
      123.0000      32487.50      42405.20      0.1020818
      126.0000      26922.50      42405.20      -0.1019554
      129.0000      27322.70      42405.20      -0.1043645
      132.0000      27365.30      42405.20      -0.1189323
      135.0000      36109.10      42405.20      0.1413995
      138.0000      33681.80      42405.20      0.0448918
      141.0000      36339.30      42405.20      0.1060672
      144.0000      34083.80      42405.20      0.0176178
      147.0000      32483.40      42405.20      -0.0488263
      150.0000      38811.50      42405.20      0.1144889
      153.0000      21092.50      42405.20      -0.4060644
      156.0000      22792.80      42405.20      -0.3706303
      159.0000      32713.30      42405.20      -0.1141695
      162.0000      32713.30      42405.20      -0.1312218
      165.0000      33093.90      42405.20      -0.1379185
      168.0000      32803.90      42405.20      -0.1616693
      171.0000      33355.90      42405.20      -0.1635490
      174.0000      36020.00      42405.20      -0.1134736
      177.0000      35559.70      42405.20      -0.1407868
      180.0000      31990.60      42405.20      -0.2409220
      183.0000      28631.20      42405.20      -0.3326375
      186.0000      32550.00      42405.20      -0.2544473
      189.0000      37944.00      42405.20      -0.1456585
      192.0000      41549.40      42405.20      -0.0800195
      195.0000      38346.20      42405.20      -0.1647165
      198.0000      36588.20      42405.20      -0.2156141
      201.0000      53647.30      42405.20      0.1324006
      204.0000      35245.80      42405.20      -0.2671490
      207.0000      41683.30      42405.20      -0.1458677
      210.0000      39727.00      42405.20      -0.1973838
      213.0000      51770.70      42405.20      0.0317512
      216.0000      46722.20      42405.20      -0.0810371
      219.0000      46864.80      42405.20      -0.0898244
      222.0000      54398.40      42405.20      0.0437419
      225.0000      52895.70      42405.20      0.0031955
      228.0000      55585.40      42405.20      0.0426021
      231.0000      55344.70      42405.20      0.0272254
      234.0000      64225.80      42405.20      0.1802527
      237.0000      64767.30      42405.20      0.1790870
      240.0000      66394.70      42405.20      0.1981241
      243.0000      53647.50      42405.20      -0.0398147
      246.0000      58231.00      42405.20      0.0343346
      249.0000      63691.50      42405.20      0.1234639
      252.0000      62252.90      42405.20      0.0911472
      255.0000      64394.60      42405.20      0.1222786
      258.0000      66037.20      42405.20      0.1451306
      261.0000      69222.20      42405.20      0.1951472
      264.0000      69341.10      42405.20      0.1928284
      267.0000      67031.80      42405.20      0.1497108
      270.0000      61050.70      42405.20      0.0448078
      273.0000      68512.20      42405.20      0.1707871
      276.0000      69965.30      42405.20      0.1947931
      279.0000      69146.00      42405.20      0.1809268
      282.0000      63427.10      42405.20      0.0842604
      285.0000      62926.70      42405.20      0.0776193
      288.0000      64530.10      42405.20      0.1080163
      291.0000      61200.10      42405.20      0.0545936
      294.0000      62322.40      42405.20      0.0787912
      297.0000      54330.40      42405.20      -0.0543639
      300.0000      54026.50      42405.20      -0.0534974
      303.0000      51100.90      42405.20      -0.0979238
      306.0000      53937.30      42405.20      -0.0395133
      309.0000      49002.30      42405.20      -0.1187118
      312.0000      50116.40      42405.20      -0.0885788
      315.0000      49957.60      42405.20      -0.0800874
      318.0000      46233.80      42405.20      -0.1368011
      321.0000      50568.50      42405.20      -0.0413180
      324.0000      51308.60      42405.20      -0.0107513
      327.0000      50230.40      42405.20      -0.0134346
      330.0000      46628.10      42405.20      -0.0654010
      333.0000      43036.90      42405.20      -0.1179984
      336.0000      41084.40      42405.20      -0.1373108
      339.0000      37343.90      42405.20      -0.1947705
      342.0000      41143.10      42405.20      -0.0867712
      345.0000      42696.80      42405.20      -0.0218163
      348.0000      41506.40      42405.20      -0.0156289
      351.0000      41146.10      42405.20      0.0134536
      354.0000      45219.90      42405.20      0.1609415
      357.0000      41618.70      42405.20      0.1182578
      360.0000      31990.60      42405.20      -0.2409220
       17     121       19.5900     63.0000      1.00000      0.00000
      0.0000      35477.00      37993.30      -0.2317882
      3.0000      34446.90      37993.30      -0.2251941
      6.0000      38622.90      37993.30      -0.0978837
      9.0000      34523.10      37993.30      -0.1629697
      12.0000      32067.40      37993.30      -0.1932877
      15.0000      32141.20      37993.30      -0.1614685
      18.0000      36691.20      37993.30      -0.0078718
      21.0000      33375.60      37993.30      -0.0652501
      24.0000      34436.50      37993.30      -0.0017904
      27.0000      34595.70      37993.30      0.0370506
      30.0000      35371.10      37993.30      0.0954733
      33.0000      36581.30      37993.30      0.1693613
      36.0000      30227.10      37993.30      -0.0038070
      39.0000      28906.20      37993.30      -0.0189833
      42.0000      28947.10      37993.30      0.0103455
      45.0000      31843.90      37993.30      0.1414908
      48.0000      33030.90      37993.30      0.2142599
      51.0000      55708.10      37993.30      1.0969209
      54.0000      36093.40      37993.30      0.3888559
      57.0000      30938.90      37993.30      0.2149597
      60.0000      26708.60      37993.30      0.0684877
      63.0000      26612.70      37993.30      0.0826258
      66.0000      28695.00      37993.30      0.1848305
      69.0000      28711.30      37993.30      0.2009853
      72.0000      31332.60      37993.30      0.3251955
      75.0000      24809.10      37993.30      0.0588925
      78.0000      24622.50      37993.30      0.0584956
      81.0000      23683.80      37993.30      0.0235016
      84.0000      28766.20      37993.30      0.2473104
      87.0000      23915.50      37993.30      0.0385245
      90.0000      22094.30      37993.30      -0.0408789
      93.0000      20967.20      37993.30      -0.0917094
      96.0000      26486.60      37993.30      0.1430513
      99.0000      28922.20      37993.30      0.2414290
      102.0000      22418.10      37993.30      -0.0444108
      105.0000      21346.30      37993.30      -0.0977125
      108.0000      18916.90      37993.30      -0.2081747
      111.0000      21753.80      37993.30      -0.0994267
      114.0000      27270.20      37993.30      0.1152324
      117.0000      25531.90      37993.30      0.0303466
      120.0000      28533.20      37993.30      0.1351289
      123.0000      28247.70      37993.30      0.1068390
      126.0000      27387.90      37993.30      0.0561338
      129.0000      25861.40      37993.30      -0.0192412
      132.0000      21959.60      37993.30      -0.1815102
      135.0000      28067.80      37993.30      0.0276393
      138.0000      30561.00      37993.30      0.0986080
      141.0000      30872.40      37993.30      0.0892324
      144.0000      29556.70      37993.30      0.0231615
      147.0000      27143.40      37993.30      -0.0783141
      150.0000      28944.50      37993.30      -0.0360933
      153.0000      23858.50      37993.30      -0.2208738
      156.0000      27347.10      37993.30      -0.1243289
      159.0000      29376.30      37993.30      -0.0776758
      162.0000      32849.30      37993.30      0.0113040
      165.0000      30763.20      37993.30      -0.0712738
      168.0000      27465.90      37993.30      -0.1867956
      171.0000      29156.10      37993.30      -0.1532590
      174.0000      27833.30      37993.30      -0.2069845
      177.0000      30444.50      37993.30      -0.1488305
      180.0000      28211.10      37993.30      -0.2258508
      183.0000      28866.10      37993.30      -0.2223051
      186.0000      29394.40      37993.30      -0.2222643
      189.0000      28257.20      37993.30      -0.2655155
      192.0000      30915.10      37993.30      -0.2103052
      195.0000      27505.90      37993.30      -0.3092720
      198.0000      32687.90      37993.30      -0.1927163
      201.0000      35092.10      37993.30      -0.1473336
      204.0000      37806.30      37993.30      -0.0958426
      207.0000      36484.50      37993.30      -0.1408200
      210.0000      40438.90      37993.30      -0.0618707
      213.0000      37602.50      37993.30      -0.1402642
      216.0000      41222.40      37993.30      -0.0706717
      219.0000      47832.20      37993.30      0.0637794
      222.0000      37853.40      37993.30      -0.1691090
      225.0000      46226.00      37993.30      0.0019608
      228.0000      44386.10      37993.30      -0.0494859
      231.0000      48742.70      37993.30      0.0317982
      234.0000      49707.00      37993.30      0.0406562
      237.0000      59795.70      37993.30      0.2387954
      240.0000      50847.30      37993.30      0.0429832
      243.0000      54452.00      37993.30      0.1064901
      246.0000      53255.10      37993.30      0.0726753
      249.0000      53165.00      37993.30      0.0620874
      252.0000      53038.10      37993.30      0.0514986
      255.0000      58719.10      37993.30      0.1559806
      258.0000      59411.60      37993.30      0.1621505
      261.0000      57128.60      37993.30      0.1110662
      264.0000      59282.70      37993.30      0.1470725
      267.0000      60784.70      37993.30      0.1709042
      270.0000      56831.40      37993.30      0.0906217
      273.0000      60412.30      37993.30      0.1557704
      276.0000      59398.50      37993.30      0.1336829
      279.0000      60225.90      37993.30      0.1475911
      282.0000      62347.20      37993.30      0.1869580
      285.0000      58171.90      37993.30      0.1073439
      288.0000      50842.90      37993.30      -0.0315053
      291.0000      57568.30      37993.30      0.0982622
      294.0000      53537.80      37993.30      0.0237856
      297.0000      55734.40      37993.30      0.0692545
      300.0000      53125.50      37993.30      0.0234528
      303.0000      49643.20      37993.30      -0.0387309
      306.0000      50421.10      37993.30      -0.0176903
      309.0000      46224.90      37993.30      -0.0929898
      312.0000      47864.00      37993.30      -0.0530765
      315.0000      44760.00      37993.30      -0.1061640
      318.0000      72980.50      37993.30      0.4728327
      321.0000      46664.70      37993.30      -0.0470763
      324.0000      47741.10      37993.30      -0.0122211
      327.0000      43062.10      37993.30      -0.0959999
      330.0000      40256.40      37993.30      -0.1412636
      333.0000      38858.00      37993.30      -0.1563841
      336.0000      40316.50      37993.30      -0.1076786
      339.0000      40170.20      37993.30      -0.0919611
      342.0000      44304.50      37993.30      0.0248449
      345.0000      40345.50      37993.30      -0.0429569
      348.0000      35607.90      37993.30      -0.1318331
      351.0000      41021.00      37993.30      0.0305471
      354.0000      35118.20      37993.30      -0.0884363
      357.0000      32708.90      37993.30      -0.1201193
      360.0000      28211.10      37993.30      -0.2258508
       18     121       19.5900     66.0000      1.00000      0.00000
      0.0000      27194.40      31927.80      -0.3079187
      3.0000      31251.70      31927.80      -0.1751394
      6.0000      35383.10      31927.80      -0.0317420
      9.0000      35830.70      31927.80      0.0161845
      12.0000      27582.10      31927.80      -0.1896481
      15.0000      24397.10      31927.80      -0.2578491
      18.0000      27357.10      31927.80      -0.1388463
      21.0000      27902.40      31927.80      -0.0917059
      24.0000      30901.60      31927.80      0.0395027
      27.0000      32719.70      31927.80      0.1364900
      30.0000      33691.00      31927.80      0.2072565
      33.0000      34185.90      31927.80      0.2625386
      36.0000      32907.10      31927.80      0.2512573
      39.0000      25866.20      31927.80      0.0114885
      42.0000      24061.60      31927.80      -0.0335019
      45.0000      26768.70      31927.80      0.1030480
      48.0000      26499.30      31927.80      0.1186682
      51.0000      27387.30      31927.80      0.1827506
      54.0000      27590.40      31927.80      0.2171008
      57.0000      27929.00      31927.80      0.2565176
      60.0000      20177.70      31927.80      -0.0756744
      63.0000      23748.10      31927.80      0.1058507
      66.0000      28774.70      31927.80      0.3597188
      69.0000      26095.60      31927.80      0.2491625
      72.0000      27954.10      31927.80      0.3531424
      75.0000      23007.20      31927.80      0.1241800
      78.0000      19832.40      31927.80      -0.0235533
      81.0000      23866.20      31927.80      0.1819210
      84.0000      17313.20      31927.80      -0.1390986
      87.0000      20001.70      31927.80      -0.0030684
      90.0000      17226.50      31927.80      -0.1408164
      93.0000      20830.90      31927.80      0.0379487
      96.0000      25210.90      31927.80      0.2529899
      99.0000      25986.50      31927.80      0.2862867
      102.0000      21611.50      31927.80      0.0638360
      105.0000      26946.90      31927.80      0.3173445
      108.0000      15987.40      31927.80      -0.2248176
      111.0000      20556.10      31927.80      -0.0126480
      114.0000      21844.00      31927.80      0.0381843
      117.0000      21627.70      31927.80      0.0160288
      120.0000      27035.30      31927.80      0.2541783
      123.0000      24417.80      31927.80      0.1175904
      126.0000      27808.80      31927.80      0.2547525
      129.0000      23485.30      31927.80      0.0438995
      132.0000      19824.50      31927.80      -0.1324929
      135.0000      18593.30      31927.80      -0.1994466
      138.0000      20469.80      31927.80      -0.1332433
      141.0000      24959.50      31927.80      0.0389311
      144.0000      24198.40      31927.80      -0.0101909
      147.0000      22399.70      31927.80      -0.0998905
      150.0000      22268.50      31927.80      -0.1211128
      153.0000      22001.00      31927.80      -0.1472948
      156.0000      22597.90      31927.80      -0.1400217
      159.0000      28424.00      31927.80      0.0620324
      162.0000      29236.80      31927.80      0.0725219
      165.0000      26790.30      31927.80      -0.0350891
      168.0000      23024.50      31927.80      -0.1857452
      171.0000      23358.60      31927.80      -0.1888130
      174.0000      20676.40      31927.80      -0.2948007
      177.0000      19950.10      31927.80      -0.3316288
      180.0000      21802.40      31927.80      -0.2823733
      183.0000      23602.20      31927.80      -0.2365749
      186.0000      24839.50      31927.80      -0.2102570
      189.0000      26598.90      31927.80      -0.1685135
      192.0000      26653.00      31927.80      -0.1805631
      195.0000      24166.10      31927.80      -0.2690425
      198.0000      26533.80      31927.80      -0.2101445
      201.0000      30754.50      31927.80      -0.0986907
      204.0000      32236.50      31927.80      -0.0695532
      207.0000      28801.40      31927.80      -0.1809620
      210.0000      31288.30      31927.80      -0.1230116
      213.0000      35020.60      31927.80      -0.0320842
      216.0000      34041.70      31927.80      -0.0718595
      219.0000      34150.80      31927.80      -0.0810673
      222.0000      30735.50      31927.80      -0.1834168
      225.0000      36495.50      31927.80      -0.0421911
      228.0000      38433.70      31927.80      -0.0031311
      231.0000      52929.80      31927.80      0.3574510
      234.0000      42717.60      31927.80      0.0837902
      237.0000      38443.50      31927.80      -0.0346232
      240.0000      40522.50      31927.80      0.0077006
      243.0000      38076.00      31927.80      -0.0618368
      246.0000      45033.90      31927.80      0.1000026
      249.0000      51682.30      31927.80      0.2521697
      252.0000      53143.70      31927.80      0.2778664
      255.0000      48985.80      31927.80      0.1696783
      258.0000      49066.60      31927.80      0.1641273
      261.0000      51154.70      31927.80      0.2066452
      264.0000      46696.10      31927.80      0.0957749
      267.0000      48552.20      31927.80      0.1341479
      270.0000      47092.30      31927.80      0.0957478
      273.0000      49329.00      31927.80      0.1440626
      276.0000      53084.30      31927.80      0.2279892
      279.0000      47371.50      31927.80      0.0937768
      282.0000      46697.00      31927.80      0.0769467
      285.0000      41650.60      31927.80      -0.0398485
      288.0000      42338.70      31927.80      -0.0236657
      291.0000      42983.20      31927.80      -0.0077020
      294.0000      46572.40      31927.80      0.0772224
      297.0000      47470.40      31927.80      0.1010229
      300.0000      45462.60      31927.80      0.0582808
      303.0000      46298.60      31927.80      0.0826263
      306.0000      45842.70      31927.80      0.0778330
      309.0000      44157.30      31927.80      0.0449078
      312.0000      36417.80      31927.80      -0.1317887
      315.0000      35775.70      31927.80      -0.1398014
      318.0000      40863.20      31927.80      -0.0079656
      321.0000      35632.30      31927.80      -0.1255571
      324.0000      39769.50      31927.80      -0.0122030
      327.0000      36189.30      31927.80      -0.0890502
      330.0000      34145.20      31927.80      -0.1277506
      333.0000      37793.70      31927.80      -0.0187846
      336.0000      31514.80      31927.80      -0.1671399
      339.0000      31514.80      31927.80      -0.1508005
      342.0000      40773.90      31927.80      0.1222577
      345.0000      37052.40      31927.80      0.0437070
      348.0000      39179.40      31927.80      0.1318164
      351.0000      32734.20      31927.80      -0.0280209
      354.0000      27485.50      31927.80      -0.1590595
      357.0000      27453.70      31927.80      -0.1321580
      360.0000      21802.40      31927.80      -0.2823733
       19     121       19.5900     69.0000      1.00000      0.00000
      0.0000      29896.70      26239.50      -0.0844321
      3.0000      22749.50      26239.50      -0.2784109
      6.0000      30240.10      26239.50      -0.0068417
      9.0000      28803.70      26239.50      -0.0208610
      12.0000      25478.80      26239.50      -0.1039021
      15.0000      19619.50      26239.50      -0.2864257
      18.0000      22911.30      26239.50      -0.1387218
      21.0000      23650.30      26239.50      -0.0816403
      24.0000      22891.10      26239.50      -0.0824357
      27.0000      27850.40      26239.50      0.1515331
      30.0000      28720.00      26239.50      0.2239270
      33.0000      31398.00      26239.50      0.3779042
      36.0000      25394.60      26239.50      0.1465495
      39.0000      19822.50      26239.50      -0.0801838
      42.0000      18306.30      26239.50      -0.1279128
      45.0000      17689.90      26239.50      -0.1358365
      48.0000      25522.40      26239.50      0.2769320
      51.0000      21592.90      26239.50      0.1050157
      54.0000      18649.80      26239.50      -0.0251204
      57.0000      20310.00      26239.50      0.0829010
      60.0000      16776.30      26239.50      -0.0889621
      63.0000      18077.40      26239.50      -0.0016646
      66.0000      25900.90      26239.50      0.4523682
      69.0000      26501.00      26239.50      0.5064413
      72.0000      25067.60      26239.50      0.4422031
      75.0000      24107.40      26239.50      0.4014452
      78.0000      16835.20      26239.50      -0.0127188
      81.0000      16292.60      26239.50      -0.0377345
      84.0000      11374.00      26239.50      -0.3245567
      87.0000      15926.50      26239.50      -0.0505667
      90.0000      16444.30      26239.50      -0.0174904
      93.0000      18090.60      26239.50      0.0816225
      96.0000      19860.70      26239.50      0.1864818
      99.0000      22238.10      26239.50      0.3254759
      102.0000      20194.10      26239.50      0.1992070
      105.0000      19453.30      26239.50      0.1494039
      108.0000      13752.70      26239.50      -0.1925425
      111.0000      15086.00      26239.50      -0.1209156
      114.0000      19647.80      26239.50      0.1350076
      117.0000      20899.00      26239.50      0.1955682
      120.0000      23071.90      26239.50      0.3057631
      123.0000      30966.10      26239.50      0.7322107
      126.0000      23493.20      26239.50      0.2978462
      129.0000      18899.70      26239.50      0.0303123
      132.0000      16093.30      26239.50      -0.1348529
      135.0000      17019.70      26239.50      -0.0983111
      138.0000      16091.00      26239.50      -0.1603329
      141.0000      16385.90      26239.50      -0.1582130
      144.0000      17258.80      26239.50      -0.1274970
      147.0000      13623.80      26239.50      -0.3224794
      150.0000      11881.10      26239.50      -0.4189441
      153.0000      18164.50      26239.50      -0.1265959
      156.0000      24375.30      26239.50      0.1520960
      159.0000      24375.30      26239.50      0.1323322
      162.0000      21258.00      26239.50      -0.0295121
      165.0000      21537.30      26239.50      -0.0337696
      168.0000      18223.00      26239.50      -0.1966090
      171.0000      17282.30      26239.50      -0.2512463
      174.0000      16279.00      26239.50      -0.3068553
      177.0000      16314.70      26239.50      -0.3172257
      180.0000      18029.90      26239.50      -0.2582629
      183.0000      22248.00      26239.50      -0.1001384
      186.0000      19701.60      26239.50      -0.2163979
      189.0000      21907.20      26239.50      -0.1429966
      192.0000      19332.90      26239.50      -0.2559593
      195.0000      20956.60      26239.50      -0.2063363
      198.0000      21751.30      26239.50      -0.1891551
      201.0000      23135.00      26239.50      -0.1508430
      204.0000      22812.30      26239.50      -0.1753108
      207.0000      23570.50      26239.50      -0.1604689
      210.0000      25678.00      26239.50      -0.0985810
      213.0000      29517.10      26239.50      0.0216304
      216.0000      30559.10      26239.50      0.0432260
      219.0000      32541.90      26239.50      0.0961432
      222.0000      27398.80      26239.50      -0.0890036
      225.0000      31051.00      26239.50      0.0195319
      228.0000      27084.40      26239.50      -0.1214452
      231.0000      28011.20      26239.50      -0.1019615
      234.0000      29659.80      26239.50      -0.0597598
      237.0000      29864.40      26239.50      -0.0634517
      240.0000      31350.50      26239.50      -0.0269627
      243.0000      30350.40      26239.50      -0.0672496
      246.0000      33485.60      26239.50      0.0194992
      249.0000      39092.30      26239.50      0.1796798
      252.0000      42407.90      26239.50      0.2690673
      255.0000      42706.80      26239.50      0.2680177
      258.0000      40340.20      26239.50      0.1890140
      261.0000      39584.80      26239.50      0.1588656
      264.0000      39921.30      26239.50      0.1614622
      267.0000      40444.00      26239.50      0.1700266
      270.0000      39715.40      26239.50      0.1431221
      273.0000      38393.10      26239.50      0.1001087
      276.0000      42349.50      26239.50      0.2087657
      279.0000      41968.50      26239.50      0.1939821
      282.0000      41528.10      26239.50      0.1783462
      285.0000      36868.40      26239.50      0.0440583
      288.0000      35735.00      26239.50      0.0106359
      291.0000      36809.00      26239.50      0.0403621
      294.0000      38278.70      26239.50      0.0819948
      297.0000      35894.20      26239.50      0.0154233
      300.0000      37391.10      26239.50      0.0594330
      303.0000      40363.70      26239.50      0.1463498
      306.0000      38354.10      26239.50      0.0927210
      309.0000      35764.30      26239.50      0.0230142
      312.0000      30400.50      26239.50      -0.1261755
      315.0000      30281.00      26239.50      -0.1245782
      318.0000      29439.10      26239.50      -0.1431913
      321.0000      29513.20      26239.50      -0.1344058
      324.0000      31540.60      26239.50      -0.0668474
      327.0000      28942.30      26239.50      -0.1352951
      330.0000      26768.50      26239.50      -0.1914589
      333.0000      28816.00      26239.50      -0.1190081
      336.0000      28816.00      26239.50      -0.1071519
      339.0000      37524.30      26239.50      0.1798844
      342.0000      39107.60      26239.50      0.2496360
      345.0000      31393.80      26239.50      0.0209713
      348.0000      30311.40      26239.50      0.0048903
      351.0000      26222.90      26239.50      -0.1122688
      354.0000      25045.80      26239.50      -0.1325897
      357.0000      24090.30      26239.50      -0.1447666
      360.0000      18029.90      26239.50      -0.2582629
